LabVIEW Measurement	
Writer_Version	2
Reader_Version	2
Separator	Tab
Decimal_Separator	.
Multi_Headings	No
X_Columns	One
Time_Pref	Absolute
Operator	User
Description	Clolumns are: time, Current, Voltage, Power, Battery Temp, and Chamber Temp
Date	2023/09/07
Time	12:11:35.8010592460632324219
***End_of_Header***	
	
Channels	5					
Samples	1	1	1	1	1	
Date	2023/09/07	2023/09/07	2023/09/07	2023/09/07	2023/09/07	
Time	12:11:35.8010592460632324219	12:11:35.8079929351806640625	12:11:35.8169736862182617187	12:11:35.9925537109375	12:11:35.9925537109375	
X_Dimension	Time	Time	Time	Time	Time	
X0	0.0000000000000000E+0	0.0000000000000000E+0	0.0000000000000000E+0	0.0000000000000000E+0	0.0000000000000000E+0	
Delta_X	1.000000	1.000000	1.000000	1.000000	1.000000	
***End_of_Header***						
X_Value	Untitled	Untitled 1	Untitled 2	Untitled 3	Untitled 4	Comment
0.000000	-2.595400	3.747500	-9.725500	40.094421	40.050018
0.213123	-2.587100	3.727400	-9.643100	40.090656	40.056808
1.209719	-2.595900	3.636400	-9.439300	40.100332	40.053745
2.209655	-2.610400	3.551200	-9.269700	40.096790	40.060031
3.213988	-2.608300	3.484500	-9.088200	40.089724	40.068978
4.214286	-2.605900	3.440200	-8.964600	40.090842	40.059906
5.209539	-2.604500	3.412900	-8.888800	40.097925	40.048790
6.209667	-2.589500	3.395300	-8.791800	40.085444	40.051232
7.210258	-2.593500	3.384900	-8.778700	40.095574	40.061362
8.208017	-2.599500	3.375900	-8.774600	40.099248	40.063580
9.207839	-2.607200	3.368000	-8.780800	40.098361	40.044858
10.210102	-2.602100	3.362000	-8.747800	40.103668	40.053442
11.210622	-2.600700	3.356700	-8.729200	40.106917	40.069430
12.214684	-2.604900	3.351800	-8.730800	40.099859	40.058004
13.210444	-2.599200	3.345700	-8.695500	40.110307	40.053530
14.211262	-2.604200	3.340500	-8.699000	40.094790	40.046384
15.213227	-2.605400	3.336400	-8.692400	40.091977	40.044298
16.211442	-2.596800	3.332800	-8.654000	40.105114	40.073450
17.212270	-2.594300	3.327500	-8.632200	40.103995	40.073059
18.213023	-2.594700	3.323400	-8.622400	40.107510	40.056556
19.209409	-2.594200	3.319700	-8.611600	40.114247	40.065841
20.211025	-2.615100	3.316000	-8.671300	40.112526	40.057204
21.208210	-2.602100	3.312800	-8.620300	40.095943	40.054088
22.209245	-2.597000	3.308900	-8.593000	40.091690	40.062574
23.210726	-2.617800	3.305000	-8.651100	40.117709	40.062751
24.209286	-2.600800	3.302200	-8.588100	40.104569	40.043060
25.212855	-2.589800	3.300100	-8.546500	40.111902	40.057308
26.212086	-2.604900	3.297300	-8.588800	40.101374	40.068982
27.209997	-2.595500	3.294000	-8.549100	40.117698	40.076572
28.208310	-2.601300	3.291100	-8.561200	40.116917	40.071059
29.210098	-2.607200	3.289400	-8.575900	40.117794	40.062837
30.212629	-2.598300	3.287200	-8.540600	40.120937	40.068163
31.208653	-2.576500	3.284900	-8.463200	40.118602	40.048358
32.210701	-2.606200	3.282600	-8.554800	40.104275	40.059144
33.211106	-2.588700	3.280200	-8.490900	40.110924	40.057423
34.210076	-2.593000	3.278800	-8.501400	40.119072	40.069210
35.210009	-2.605200	3.276600	-8.536000	40.117953	40.060085
36.207654	-2.598000	3.275800	-8.510100	40.135813	40.071030
37.210149	-2.621900	3.272800	-8.580800	40.128277	40.087514
38.208580	-2.617300	3.271300	-8.561700	40.129103	40.087613
39.209829	-2.603500	3.270000	-8.513100	40.130415	40.078734
40.211142	-2.617300	3.268100	-8.552600	40.134135	40.072263
41.212886	-2.589300	3.266600	-8.458000	40.137713	40.082756
42.208474	-2.617100	3.265300	-8.545200	40.110683	40.094305
43.211683	-2.593800	3.265100	-8.468700	40.125695	40.078017
44.210893	-2.571200	3.263500	-8.390400	40.122499	40.086104
45.210782	-2.594000	3.260000	-8.455900	40.127220	40.068623
46.213913	-2.612000	3.259100	-8.512500	40.134267	40.076399
47.212047	-2.613000	3.258600	-8.514100	40.142008	40.066671
48.213533	-2.587400	3.258600	-8.430700	40.126829	40.067505
49.209547	-2.583100	3.257800	-8.414300	40.133080	40.070480
50.208978	-2.608200	3.255200	-8.489800	40.134517	40.069006
51.208474	-2.593300	3.254800	-8.440200	40.129377	40.092982
52.209470	-2.596900	3.253800	-8.449100	40.137429	40.089751
53.210650	-2.609400	3.253800	-8.490200	40.108863	40.090665
54.210083	-2.627400	3.252700	-8.546000	40.128543	40.083049
55.208960	-2.610000	3.252300	-8.488100	40.120368	40.091980
56.212371	-2.588700	3.251300	-8.416300	40.126651	40.088800
57.211351	-2.603600	3.250600	-8.463100	40.142861	40.080262
58.208488	-2.605000	3.250700	-8.467700	40.133372	40.082783
59.208381	-2.595500	3.249800	-8.434500	40.140651	40.075140
60.213101	-2.570100	3.249800	-8.352100	40.159477	40.105250
61.213027	-2.601800	3.247500	-8.449100	40.141485	40.090168
62.213213	-2.617100	3.247300	-8.497700	40.156149	40.094642
63.213603	-2.591400	3.246700	-8.413300	40.148525	40.075007
64.209760	-2.582800	3.247600	-8.387300	40.151471	40.083777
65.209219	-2.605800	3.247000	-8.460600	40.151125	40.078336
66.209266	-2.578400	3.245700	-8.368300	40.140189	40.075770
67.211828	-2.616300	3.245400	-8.490500	40.152199	40.102702
68.210526	-2.591400	3.245800	-8.410400	40.167617	40.082454
69.210865	-2.623300	3.245000	-8.512400	40.148631	40.087124
70.210335	-2.607900	3.245900	-8.464300	40.159647	40.088678
71.209728	-2.591700	3.245200	-8.410000	40.166259	40.090559
72.214096	-2.595400	3.243700	-8.418600	40.154374	40.092504
73.212747	-2.585200	3.245200	-8.389400	40.152910	40.092859
74.212634	-2.602900	3.242600	-8.439600	40.144558	40.087419
75.210134	-2.592900	3.244800	-8.413100	40.153274	40.093587
76.209606	-2.595300	3.245200	-8.422200	40.161751	40.082411
77.211926	-2.610600	3.244600	-8.469700	40.154021	40.068857
78.211974	-2.604600	3.244200	-8.449600	40.156799	40.084738
79.214159	-2.608900	3.242900	-8.459600	40.159312	40.084703
80.212646	-2.620500	3.243300	-8.498700	40.149531	40.084021
81.213404	-2.595800	3.243500	-8.418900	40.161504	40.098542
82.209954	-2.579400	3.244200	-8.367800	40.157902	40.085840
83.211323	-2.602000	3.241900	-8.434900	40.171962	40.083888
84.212195	-2.596200	3.242300	-8.416900	40.170942	40.083959
85.208541	-2.604100	3.243400	-8.445600	40.147021	40.093884
86.209718	-2.599800	3.243500	-8.431900	40.165217	40.097888
87.210574	-2.619900	3.243000	-8.496100	40.163310	40.103259
88.209630	-2.620500	3.242100	-8.495800	40.162146	40.079895
89.210990	-2.614300	3.242200	-8.476400	40.158358	40.098307
90.208728	-2.606300	3.243200	-8.452500	40.162032	40.117267
91.209184	-2.631000	3.242700	-8.531200	40.168442	40.097837
92.212950	-2.580000	3.243600	-8.367700	40.166853	40.094065
93.212270	-2.590500	3.243400	-8.401500	40.167573	40.090781
94.213634	-2.591000	3.242400	-8.400700	40.168665	40.100244
95.212456	-2.586400	3.240500	-8.381000	40.163846	40.108891
96.214742	-2.600500	3.244100	-8.436000	40.165647	40.098682
97.211010	-2.596000	3.243100	-8.418700	40.161530	40.106575
98.210945	-2.606700	3.241900	-8.450400	40.170655	40.085856
99.211865	-2.608700	3.242400	-8.458100	40.175973	40.095906
100.208690	-2.602600	3.243700	-8.441900	40.179487	40.107791
101.211143	-2.586300	3.242800	-8.386300	40.171037	40.100068
102.208387	-2.560000	3.242700	-8.300300	40.178919	40.101763
103.210509	-2.602200	3.242800	-8.438200	40.167310	40.097433
104.209167	-2.574400	3.242900	-8.347700	40.181007	40.120229
105.210211	-2.599400	3.241400	-8.425500	40.164603	40.104189
106.209679	-2.592700	3.241500	-8.403900	40.169823	40.120327
107.211587	-2.582200	3.242700	-8.372800	40.172628	40.112578
108.210220	-2.588000	3.242900	-8.392400	40.179392	40.101508
109.213970	-2.607300	3.243100	-8.455600	40.174270	40.121863
110.214114	-2.581100	3.242300	-8.368200	40.174777	40.096894
111.213152	-2.594700	3.241800	-8.411100	40.192164	40.093900
112.208444	-2.574300	3.242500	-8.347000	40.185578	40.100416
113.209282	-2.597200	3.241700	-8.418600	40.191117	40.101952
114.209917	-2.598600	3.241700	-8.423300	40.171066	40.104101
115.210407	-2.586700	3.241000	-8.383200	40.163432	40.104837
116.211128	-2.611100	3.242900	-8.467400	40.191462	40.095018
117.212493	-2.607300	3.241400	-8.451000	40.184779	40.096341
118.210162	-2.597800	3.241400	-8.419900	40.172387	40.117432
119.211540	-2.598800	3.243600	-8.429400	40.175556	40.110411
120.212638	-2.608600	3.241900	-8.456100	40.189829	40.115222
121.212184	-2.613500	3.240900	-8.469800	40.199291	40.107943
122.213113	-2.590900	3.241000	-8.396700	40.192873	40.106620
123.213431	-2.594200	3.242500	-8.411400	40.191736	40.117493
124.209635	-2.609600	3.241700	-8.459400	40.194124	40.119153
125.211288	-2.592900	3.242600	-8.407300	40.203097	40.135406
126.209776	-2.592100	3.242100	-8.403400	40.221995	40.128101
127.209038	-2.594800	3.241200	-8.410200	40.213633	40.142302
128.211075	-2.584600	3.241600	-8.377600	40.192953	40.102696
129.211645	-2.597600	3.242000	-8.421200	40.209550	40.120022
130.209126	-2.572200	3.242500	-8.339200	40.199989	40.110461
131.210238	-2.592900	3.241600	-8.405000	40.189765	40.125348
132.209699	-2.616900	3.241000	-8.481000	40.192676	40.119889
133.209488	-2.615600	3.241000	-8.476700	40.204428	40.135281
134.215757	-2.586500	3.241800	-8.384500	40.205565	40.145881
135.214027	-2.621000	3.242400	-8.498100	40.214076	40.142018
136.213905	-2.596300	3.242100	-8.417100	40.207374	40.131312
137.213068	-2.568900	3.241800	-8.328000	40.196555	40.136142
138.210421	-2.571900	3.241900	-8.337000	40.206080	40.140937
139.213139	-2.600600	3.242300	-8.431400	40.201437	40.134474
140.209196	-2.619400	3.242400	-8.493000	40.227310	40.127957
141.208998	-2.597300	3.241100	-8.417400	40.210126	40.124966
142.211314	-2.607800	3.241900	-8.454100	40.221328	40.124886
143.211181	-2.606800	3.242300	-8.451700	40.222739	40.126297
144.212677	-2.610600	3.240500	-8.459700	40.215665	40.121406
145.213979	-2.641200	3.240400	-8.558700	40.217253	40.125906
146.213542	-2.586800	3.241500	-8.385000	40.246002	40.114988
147.211792	-2.608800	3.240500	-8.453400	40.212841	40.095290
148.211329	-2.582700	3.241300	-8.370700	40.224274	40.119462
149.212107	-2.594300	3.241600	-8.409600	40.224354	40.118449
150.208566	-2.615800	3.240400	-8.476000	40.221859	40.122506
151.211732	-2.589300	3.240500	-8.390100	40.221432	40.122078
152.208678	-2.593900	3.242000	-8.408500	40.220021	40.134134
153.209944	-2.606700	3.240900	-8.447100	40.225711	40.114348
154.209905	-2.610600	3.240000	-8.458000	40.240276	40.145655
155.210690	-2.581300	3.241400	-8.367000	40.226837	40.128576
156.212346	-2.582300	3.242100	-8.372000	40.225870	40.137436
157.212977	-2.614700	3.242100	-8.476800	40.222470	40.122753
158.209190	-2.591600	3.241400	-8.400200	40.242531	40.118795
159.209342	-2.581600	3.241000	-8.366700	40.238429	40.106322
160.213130	-2.609100	3.241100	-8.455900	40.232891	40.120437
161.210202	-2.602000	3.241700	-8.434500	40.228293	40.129304
162.214674	-2.608900	3.240900	-8.454900	40.240302	40.114746
163.216177	-2.604900	3.240700	-8.441100	40.239237	40.120232
164.213448	-2.598800	3.240000	-8.419600	40.236227	40.123409
165.209774	-2.603200	3.241800	-8.438700	40.237657	40.113556
166.209837	-2.614100	3.241100	-8.472300	40.237986	40.122256
167.209579	-2.605300	3.241300	-8.444300	40.234878	40.108230
168.210715	-2.595700	3.241900	-8.414400	40.247233	40.119130
169.209597	-2.588900	3.241600	-8.392000	40.256482	40.124740
170.210092	-2.584700	3.241500	-8.377600	40.241766	40.123489
171.213005	-2.580000	3.241800	-8.363500	40.251236	40.129684
172.209774	-2.610300	3.241200	-8.460200	40.238020	40.127750
173.210537	-2.582800	3.241600	-8.372000	40.249541	40.129809
174.211954	-2.610700	3.241500	-8.461400	40.244499	40.115304
175.210688	-2.627300	3.240000	-8.512300	40.255417	40.139325
176.215158	-2.568100	3.242200	-8.325500	40.227440	40.129907
177.212393	-2.596700	3.240900	-8.414800	40.234984	40.123258
178.210438	-2.609300	3.240900	-8.456200	40.245413	40.123861
179.212359	-2.594900	3.241300	-8.410700	40.271410	40.133483
180.210377	-2.614400	3.240600	-8.472000	40.261353	40.109959
181.209795	-2.587600	3.241200	-8.387100	40.263768	40.129480
182.210942	-2.619900	3.241100	-8.491100	40.261566	40.133829
183.209934	-2.612300	3.241300	-8.466800	40.246869	40.122769
184.211511	-2.625400	3.240400	-8.506900	40.255895	40.112871
185.210537	-2.594800	3.240100	-8.406800	40.261468	40.117353
186.212599	-2.603500	3.240700	-8.436800	40.275269	40.142438
187.212083	-2.612500	3.240300	-8.465000	40.265399	40.146033
188.209514	-2.617900	3.239200	-8.479800	40.265699	40.133959
189.213333	-2.601800	3.240700	-8.431200	40.253292	40.117911
190.209847	-2.610700	3.240100	-8.458900	40.268425	40.120671
191.211658	-2.608200	3.239700	-8.449400	40.263596	40.118389
192.211887	-2.609300	3.240300	-8.454800	40.275711	40.118495
193.210098	-2.619000	3.239100	-8.482700	40.268956	40.125570
194.210248	-2.606800	3.241300	-8.449100	40.263346	40.152714
195.212117	-2.581200	3.240400	-8.363900	40.274271	40.138892
196.210450	-2.599300	3.240900	-8.423400	40.264863	40.123660
197.209341	-2.616100	3.240200	-8.476900	40.284025	40.116984
198.213981	-2.610300	3.239800	-8.456500	40.272274	40.119425
199.208933	-2.612700	3.239800	-8.464200	40.268385	40.135189
200.210751	-2.615900	3.239900	-8.474800	40.274101	40.150005
201.211029	-2.598700	3.240200	-8.419700	40.276009	40.136627
202.210920	-2.604000	3.239600	-8.435800	40.277313	40.144482
203.209677	-2.604000	3.239900	-8.436000	40.297612	40.133848
204.209343	-2.586100	3.239500	-8.377400	40.268037	40.125743
205.210791	-2.595500	3.239000	-8.406700	40.279292	40.147917
206.209778	-2.584400	3.240000	-8.373200	40.278083	40.153987
207.209873	-2.610000	3.240100	-8.456300	40.295604	40.152585
208.213173	-2.578500	3.240600	-8.356100	40.292950	40.126274
209.212283	-2.576200	3.241700	-8.351000	40.293296	40.128076
210.212497	-2.610900	3.239600	-8.457600	40.288823	40.124330
211.211565	-2.594900	3.240700	-8.409200	40.298914	40.144613
212.213260	-2.591800	3.239700	-8.396000	40.298034	40.114618
213.218291	-2.594300	3.241100	-8.408100	40.290393	40.122261
214.210362	-2.618700	3.239100	-8.481700	40.303883	40.124107
215.211696	-2.603400	3.240300	-8.435700	40.291883	40.118292
216.211267	-2.574000	3.240600	-8.341000	40.306022	40.103681
217.209649	-2.586400	3.239900	-8.379300	40.292868	40.119278
218.209541	-2.605900	3.239500	-8.441400	40.290329	40.126565
219.210264	-2.604200	3.239900	-8.437200	40.295432	40.136399
220.208961	-2.582500	3.239300	-8.365200	40.289362	40.107764
221.210045	-2.609400	3.239400	-8.452800	40.309847	40.139534
222.212898	-2.569100	3.239600	-8.322800	40.301254	40.125481
223.210405	-2.562300	3.239900	-8.301100	40.301814	40.145330
224.210440	-2.619600	3.238600	-8.483800	40.315908	40.132130
225.209733	-2.584700	3.240300	-8.374900	40.298104	40.165275
226.211032	-2.590400	3.240600	-8.394200	40.303233	40.144929
227.209717	-2.625600	3.238700	-8.503100	40.311185	40.128135
228.210961	-2.574500	3.239200	-8.339000	40.306952	40.152288
229.212266	-2.572700	3.239700	-8.334400	40.302938	40.151549
230.211216	-2.605600	3.239800	-8.441400	40.295156	40.147041
231.210108	-2.578300	3.238700	-8.349900	40.314184	40.142780
232.209658	-2.618700	3.239500	-8.482800	40.313847	40.139531
233.210336	-2.599600	3.238400	-8.418100	40.309967	40.129100
234.209054	-2.615700	3.239300	-8.472700	40.324514	40.126908
235.206959	-2.594200	3.238500	-8.400600	40.329537	40.135935
236.209817	-2.581100	3.239500	-8.360700	40.305555	40.126871
237.209608	-2.609500	3.238700	-8.451500	40.301002	40.135056
238.214102	-2.614400	3.239400	-8.468800	40.314333	40.118545
239.210973	-2.603700	3.239400	-8.433900	40.307109	40.133520
240.209988	-2.622200	3.238200	-8.491100	40.332998	40.123383
241.207439	-2.630600	3.237300	-8.515700	40.339646	40.130760
242.208835	-2.603000	3.239400	-8.431500	40.304224	40.122264
243.212284	-2.594200	3.239600	-8.404000	40.328002	40.136947
244.211429	-2.591700	3.238600	-8.393100	40.323200	40.126685
245.213450	-2.605000	3.239000	-8.437400	40.327149	40.132091
246.211586	-2.586800	3.239000	-8.378600	40.339452	40.133477
247.212513	-2.594200	3.238700	-8.401400	40.321887	40.122461
248.209629	-2.606200	3.239400	-8.442000	40.341030	40.135783
249.210917	-2.598100	3.238900	-8.414900	40.333168	40.124280
250.211515	-2.609400	3.238500	-8.449800	40.318897	40.135847
251.208978	-2.609400	3.238600	-8.450600	40.331500	40.119700
252.209953	-2.613400	3.238900	-8.464100	40.331837	40.128773
253.216928	-2.573700	3.238500	-8.334700	40.326788	40.125178
254.214030	-2.615300	3.238200	-8.468400	40.323956	40.144547
255.208650	-2.609200	3.239300	-8.451400	40.332530	40.128738
256.212083	-2.609400	3.238400	-8.449500	40.340491	40.112315
257.213499	-2.607800	3.237500	-8.442600	40.339258	40.134739
258.210905	-2.613000	3.239200	-8.463900	40.343208	40.142328
259.215307	-2.603400	3.238300	-8.429600	40.346225	40.135884
260.214095	-2.588200	3.238800	-8.381700	40.333906	40.123563
261.214349	-2.614300	3.238400	-8.465500	40.327098	40.146961
262.212790	-2.598400	3.237200	-8.411100	40.334660	40.152341
263.209902	-2.634500	3.236700	-8.526900	40.342275	40.142124
264.212371	-2.590400	3.238200	-8.388100	40.347388	40.128313
265.207633	-2.601700	3.238400	-8.424800	40.336116	40.122498
266.207948	-2.617000	3.238000	-8.473500	40.345258	40.136373
267.210294	-2.598500	3.238500	-8.414800	40.352002	40.151488
268.212342	-2.582600	3.237200	-8.359500	40.334926	40.139505
269.210908	-2.626500	3.237100	-8.502000	40.358427	40.132802
270.212289	-2.603500	3.237400	-8.428200	40.345816	40.124193
271.210658	-2.609600	3.237600	-8.448500	40.337659	40.115670
272.209827	-2.600100	3.239500	-8.422700	40.357335	40.110238
273.211149	-2.631100	3.238100	-8.519700	40.361046	40.113585
274.211533	-2.612500	3.236300	-8.454800	40.347040	40.121414
275.211267	-2.587100	3.236300	-8.372400	40.361338	40.121520
276.212621	-2.593200	3.237500	-8.395400	40.365322	40.137879
277.213907	-2.573100	3.238200	-8.332200	40.368961	40.133148
278.211949	-2.586400	3.237700	-8.373600	40.346116	40.143418
279.212276	-2.603500	3.237200	-8.427900	40.359784	40.153449
280.213401	-2.601300	3.236800	-8.419800	40.352826	40.143214
281.213325	-2.615100	3.236800	-8.463900	40.356483	40.153786
282.209697	-2.615800	3.237400	-8.467800	40.360316	40.167810
283.210078	-2.574100	3.237100	-8.332300	40.364257	40.141545
284.211398	-2.587900	3.236800	-8.376000	40.368002	40.146747
285.208570	-2.625500	3.237200	-8.498700	40.362908	40.146747
286.208710	-2.585100	3.236300	-8.366300	40.357893	40.150102
287.209608	-2.611400	3.237600	-8.454300	40.357264	40.151292
288.212987	-2.606500	3.238500	-8.440500	40.360032	40.127128
289.210713	-2.565300	3.237800	-8.305400	40.368010	40.133653
290.210230	-2.571200	3.236700	-8.322000	40.361131	40.132232
291.208709	-2.595500	3.237300	-8.401900	40.360937	40.146595
292.212365	-2.583900	3.237200	-8.363900	40.378456	40.164845
293.211711	-2.593800	3.238000	-8.398700	40.374871	40.135783
294.211008	-2.608300	3.236200	-8.440400	40.367407	40.144696
295.209971	-2.625600	3.235800	-8.494800	40.370433	40.137531
296.209268	-2.596100	3.236500	-8.402200	40.367238	40.151805
297.207982	-2.604200	3.237100	-8.430000	40.378332	40.136697
298.210131	-2.608500	3.235100	-8.438600	40.373965	40.149435
299.213445	-2.598300	3.235700	-8.407300	40.371854	40.160425
300.211459	-2.604500	3.236200	-8.428300	40.367203	40.138668
301.208966	-2.604100	3.235700	-8.425600	40.362019	40.153500
302.210289	-2.607600	3.236700	-8.439600	40.387508	40.146239
303.210917	-2.578600	3.237300	-8.347400	40.381527	40.134070
304.211222	-2.595500	3.237200	-8.402100	40.375872	40.153526
305.214773	-2.601300	3.236400	-8.418500	40.396881	40.131958
306.212937	-2.615200	3.235200	-8.460300	40.386098	40.141917
307.215047	-2.563300	3.237400	-8.298200	40.384207	40.132019
308.211821	-2.630500	3.235400	-8.510500	40.376273	40.159022
309.212036	-2.618200	3.237000	-8.474800	40.383532	40.153909
310.208891	-2.616100	3.235100	-8.463300	40.393907	40.155187
311.209122	-2.580900	3.235600	-8.350900	40.387784	40.138509
312.212070	-2.600100	3.236600	-8.415100	40.394111	40.143017
313.211311	-2.624200	3.236900	-8.493400	40.381686	40.138233
314.210562	-2.612500	3.235900	-8.453300	40.396748	40.136192
315.212198	-2.606700	3.236500	-8.436500	40.377232	40.140693
316.209378	-2.595600	3.236100	-8.398500	40.393712	40.126969
317.212215	-2.618100	3.235700	-8.471200	40.394777	40.141864
318.210331	-2.583700	3.236600	-8.361800	40.396437	40.132606
319.211806	-2.605500	3.236000	-8.431000	40.372945	40.138589
320.212146	-2.602000	3.236000	-8.419700	40.411205	40.123720
321.211453	-2.628600	3.235200	-8.504000	40.392132	40.131939
322.211982	-2.594600	3.235000	-8.392300	40.393394	40.131745
323.213155	-2.616600	3.234300	-8.462000	40.403901	40.139343
324.212896	-2.598500	3.234600	-8.405000	40.402926	40.121263
325.210206	-2.596700	3.235700	-8.402300	40.397502	40.132943
326.213296	-2.613300	3.234800	-8.452900	40.400618	40.129509
327.213114	-2.626200	3.235300	-8.496400	40.409165	40.132962
328.212593	-2.585600	3.235200	-8.364800	40.402997	40.140623
329.209716	-2.592800	3.236200	-8.390300	40.417995	40.124325
330.209285	-2.606600	3.235300	-8.432900	40.402562	40.142371
331.209184	-2.594600	3.235400	-8.394000	40.391850	40.138572
332.212962	-2.569100	3.236100	-8.313600	40.389019	40.131009
333.208776	-2.603800	3.235200	-8.423200	40.397805	40.140525
334.209923	-2.593200	3.235100	-8.388700	40.393128	40.118742
335.209033	-2.574500	3.234700	-8.327400	40.396448	40.130069
336.210364	-2.627800	3.234800	-8.500100	40.422495	40.125550
337.210915	-2.604800	3.233500	-8.422400	40.403016	40.124992
338.214668	-2.591300	3.234700	-8.381400	40.403956	40.129572
339.211051	-2.593200	3.234200	-8.386700	40.398703	40.150521
340.211733	-2.600600	3.233500	-8.408700	40.409406	40.140482
341.209387	-2.588200	3.233600	-8.368800	40.402341	40.146518
342.209968	-2.600900	3.234700	-8.412900	40.418245	40.145320
343.210409	-2.602400	3.234400	-8.416800	40.414234	40.139852
344.212672	-2.612900	3.234900	-8.451900	40.414704	40.134864
345.212017	-2.606800	3.233500	-8.428700	40.398970	40.145694
346.214584	-2.619700	3.234700	-8.473500	40.420980	40.151331
347.212963	-2.603300	3.233700	-8.417900	40.420279	40.149902
348.215281	-2.613400	3.233900	-8.450900	40.402779	40.145864
349.212655	-2.591000	3.234800	-8.381300	40.425559	40.152271
350.211913	-2.606100	3.233700	-8.427000	40.415878	40.133854
351.212464	-2.621300	3.234200	-8.477900	40.427291	40.142357
352.208584	-2.605200	3.233700	-8.424200	40.425713	40.152789
353.210898	-2.609200	3.233500	-8.436300	40.421150	40.144586
354.210569	-2.606500	3.234600	-8.430600	40.426138	40.138657
355.210351	-2.582800	3.234800	-8.354500	40.422279	40.123514
356.210929	-2.614600	3.233500	-8.453700	40.424834	40.141356
357.209613	-2.601500	3.232800	-8.410100	40.422342	40.138136
358.210778	-2.600800	3.233500	-8.409500	40.435582	40.141916
359.209239	-2.600000	3.234000	-8.408200	40.436631	40.137506
360.214156	-2.598200	3.233100	-8.399900	40.420860	40.138109
361.212726	-2.582200	3.233300	-8.348400	40.440588	40.141100
362.212987	-2.597300	3.233400	-8.398100	40.426753	40.122167
363.212785	-2.584600	3.231900	-8.352900	40.416610	40.138954
364.211280	-2.597700	3.233100	-8.398700	40.448346	40.147768
365.209917	-2.588800	3.233500	-8.370600	40.432416	40.154034
366.211696	-2.622700	3.232900	-8.478700	40.438256	40.147138
367.210749	-2.595100	3.233700	-8.391300	40.432949	40.138555
368.209396	-2.585900	3.233000	-8.359900	40.440848	40.145364
369.212088	-2.608600	3.233400	-8.434200	40.442046	40.132368
370.209584	-2.600000	3.233500	-8.406700	40.439953	40.131002
371.210697	-2.603700	3.232700	-8.416500	40.435560	40.149537
372.210738	-2.602800	3.232700	-8.413900	40.457588	40.126805
373.210741	-2.588400	3.233700	-8.369600	40.437637	40.138876
374.210310	-2.591900	3.231900	-8.376100	40.436423	40.132567
375.214983	-2.573700	3.232600	-8.319200	40.437709	40.151322
376.212142	-2.586100	3.231800	-8.357800	40.430344	40.155601
377.211599	-2.600000	3.232900	-8.405400	40.432341	40.135763
378.209102	-2.634300	3.232100	-8.513600	40.456594	40.149467
379.211218	-2.573200	3.233200	-8.319500	40.452618	40.139668
380.209805	-2.593300	3.233500	-8.385000	40.456924	40.123229
381.209152	-2.600400	3.233200	-8.407300	40.454278	40.142420
382.211889	-2.585800	3.231700	-8.356000	40.455760	40.141355
383.213036	-2.593800	3.232500	-8.384200	40.464084	40.149680
384.212378	-2.573900	3.231600	-8.317500	40.451599	40.122998
385.210967	-2.603500	3.232000	-8.414400	40.452379	40.146343
386.211190	-2.577300	3.233400	-8.333100	40.440460	40.146795
387.208978	-2.625500	3.232800	-8.487500	40.448696	40.140111
388.209846	-2.598700	3.230700	-8.395000	40.458626	40.159142
389.212470	-2.616500	3.232500	-8.457200	40.447684	40.151473
390.211377	-2.609000	3.231700	-8.430900	40.434976	40.138034
391.209747	-2.598000	3.233100	-8.399500	40.447017	40.154810
392.213486	-2.613900	3.233000	-8.450100	40.455590	40.132814
393.214606	-2.587300	3.232800	-8.364100	40.462121	40.137891
394.213778	-2.621100	3.230700	-8.467500	40.442997	40.156611
395.215333	-2.617600	3.232300	-8.459900	40.448375	40.155439
396.211816	-2.616900	3.231600	-8.456400	40.475485	40.144707
397.210338	-2.605500	3.231800	-8.420300	40.467622	40.143029
398.210628	-2.594400	3.230300	-8.380300	40.461402	40.145541
399.209649	-2.586900	3.232500	-8.362000	40.467906	40.138946
400.210731	-2.591700	3.232200	-8.376400	40.458775	40.141458
401.209606	-2.607300	3.231200	-8.424600	40.463264	40.148860
402.209660	-2.618900	3.230800	-8.460500	40.452473	40.155899
403.211649	-2.614400	3.230700	-8.446300	40.461463	40.141599
404.210974	-2.606700	3.230500	-8.420800	40.464878	40.149019
405.208908	-2.606000	3.231600	-8.421100	40.475465	40.151601
406.210902	-2.617800	3.231600	-8.458800	40.467585	40.152090
407.215980	-2.591100	3.230100	-8.369400	40.466148	40.149925
408.211282	-2.600100	3.230200	-8.398000	40.462286	40.142059
409.213598	-2.611800	3.231100	-8.438400	40.475260	40.149941
410.213592	-2.610600	3.231300	-8.435000	40.465197	40.153341
411.212477	-2.596700	3.230900	-8.389500	40.466058	40.149107
412.212523	-2.575600	3.231600	-8.323000	40.471826	40.143231
413.212518	-2.589800	3.231600	-8.368800	40.472899	40.145032
414.214933	-2.595600	3.230600	-8.384400	40.474426	40.162573
415.214788	-2.583700	3.229600	-8.343500	40.484595	40.142901
416.212894	-2.607300	3.230700	-8.422900	40.466918	40.135410
417.209940	-2.599900	3.230400	-8.398300	40.468791	40.152568
418.210382	-2.615600	3.229700	-8.446800	40.491731	40.145672
419.210544	-2.576600	3.230900	-8.324900	40.492201	40.159608
420.211003	-2.593800	3.229300	-8.375900	40.491280	40.147768
421.209477	-2.613800	3.229300	-8.440400	40.494145	40.144083
422.214454	-2.609600	3.229700	-8.428200	40.484454	40.140577
423.212755	-2.607900	3.231200	-8.426300	40.472944	40.158907
424.212486	-2.601900	3.230300	-8.404500	40.488268	40.137841
425.210248	-2.602800	3.229400	-8.405000	40.480992	40.133474
426.216325	-2.587000	3.228600	-8.352400	40.497364	40.141844
427.213868	-2.582700	3.230100	-8.341500	40.491145	40.139626
428.211129	-2.595500	3.230200	-8.383500	40.484967	40.137086
429.212971	-2.620100	3.229400	-8.461100	40.494170	40.133553
430.212045	-2.576900	3.229200	-8.321300	40.482819	40.111645
431.212737	-2.606600	3.229400	-8.417400	40.496671	40.115311
432.210469	-2.619100	3.228600	-8.455800	40.489057	40.131715
433.209233	-2.588600	3.229400	-8.359200	40.496911	40.117006
434.210798	-2.589000	3.229500	-8.361000	40.501694	40.113420
435.209883	-2.614100	3.229100	-8.440700	40.506184	40.133925
436.209522	-2.603800	3.228500	-8.406200	40.503388	40.161335
437.209891	-2.609700	3.229600	-8.428200	40.487823	40.151953
438.210833	-2.600500	3.229200	-8.397200	40.519707	40.152911
439.210037	-2.613100	3.228500	-8.435800	40.513087	40.141194
440.210204	-2.615500	3.229700	-8.446400	40.513974	40.123884
441.210149	-2.597900	3.229400	-8.389400	40.518181	40.120813
442.211906	-2.608500	3.229000	-8.422600	40.501630	40.126458
443.213151	-2.609900	3.230200	-8.429900	40.510548	40.129920
444.212113	-2.624200	3.227800	-8.470100	40.513220	40.163891
445.210319	-2.625000	3.228200	-8.473600	40.511382	40.133302
446.211763	-2.605700	3.229100	-8.414000	40.515119	40.134492
447.210758	-2.607800	3.228600	-8.419000	40.506493	40.145152
448.210840	-2.595800	3.228700	-8.380900	40.521596	40.143882
449.212185	-2.584200	3.229000	-8.344200	40.515836	40.138485
450.212591	-2.609800	3.228600	-8.425800	40.515419	40.148986
451.214330	-2.617900	3.228700	-8.452300	40.517079	40.123714
452.210220	-2.595900	3.227800	-8.379200	40.519883	40.151995
453.216943	-2.606800	3.228900	-8.416500	40.536495	40.149323
454.210970	-2.616600	3.227900	-8.445500	40.526289	40.149305
455.210349	-2.608800	3.229100	-8.423900	40.520096	40.160578
456.208117	-2.574200	3.227700	-8.308600	40.522791	40.151265
457.211748	-2.619300	3.227200	-8.452700	40.514707	40.166107
458.212013	-2.607300	3.227600	-8.415200	40.524603	40.146162
459.211619	-2.622200	3.227900	-8.463600	40.523814	40.145737
460.210371	-2.590400	3.227500	-8.360300	40.526111	40.156405
461.212086	-2.605300	3.227100	-8.407400	40.536006	40.138280
462.212153	-2.591900	3.226800	-8.363600	40.536635	40.135270
463.211993	-2.578400	3.226400	-8.318700	40.525251	40.126429
464.209118	-2.606100	3.228300	-8.412600	40.519944	40.122213
465.212212	-2.604600	3.227900	-8.407000	40.518471	40.141120
466.210369	-2.593200	3.227200	-8.368400	40.514229	40.138333
467.213748	-2.606400	3.228000	-8.413300	40.544143	40.136957
468.211964	-2.585500	3.227200	-8.343400	40.533388	40.147671
469.211903	-2.599700	3.228000	-8.391400	40.522916	40.145567
470.210238	-2.599900	3.227200	-8.390000	40.522659	40.151860
471.210628	-2.625500	3.226900	-8.471800	40.539262	40.154275
472.210376	-2.584200	3.227400	-8.340600	40.526146	40.162263
473.210037	-2.618600	3.227900	-8.451700	40.536582	40.147591
474.209653	-2.599200	3.227900	-8.389700	40.537584	40.148957
475.209444	-2.615000	3.227900	-8.440900	40.522659	40.140578
476.211774	-2.576500	3.226800	-8.313900	40.524797	40.153635
477.208766	-2.585800	3.227700	-8.345900	40.524345	40.147724
478.211578	-2.609400	3.226500	-8.418600	40.532251	40.147626
479.210342	-2.610300	3.225400	-8.418600	40.541737	40.132003
480.210011	-2.579300	3.226500	-8.322200	40.520449	40.135092
481.213860	-2.584600	3.226300	-8.338800	40.543139	40.134497
482.213212	-2.593600	3.227100	-8.369500	40.549431	40.157532
483.212543	-2.607900	3.225800	-8.411900	40.546440	40.154905
484.208028	-2.607500	3.227100	-8.414400	40.542555	40.142283
485.209710	-2.632000	3.227000	-8.493600	40.554168	40.133156
486.215067	-2.586300	3.226400	-8.344400	40.537034	40.135669
487.214786	-2.617400	3.227000	-8.445700	40.537159	40.148896
488.211280	-2.604700	3.226700	-8.404200	40.535196	40.155303
489.216051	-2.590200	3.227000	-8.358200	40.551879	40.134506
490.215137	-2.613200	3.225700	-8.429100	40.554622	40.117233
491.211973	-2.599800	3.225400	-8.384500	40.542545	40.134630
492.208580	-2.597900	3.225700	-8.379900	40.564916	40.133716
493.210244	-2.604200	3.225500	-8.399800	40.537238	40.141333
494.209260	-2.612400	3.225100	-8.424800	40.563070	40.153706
495.210627	-2.597900	3.225600	-8.379800	40.550514	40.142602
496.210687	-2.599600	3.225900	-8.385700	40.555509	40.137045
497.209661	-2.618100	3.226300	-8.446500	40.542154	40.136059
498.210421	-2.615800	3.226200	-8.438400	40.554330	40.130406
499.210597	-2.603200	3.225900	-8.397300	40.556574	40.132287
500.209919	-2.622400	3.225300	-8.457900	40.549609	40.134782
501.212464	-2.610800	3.225500	-8.420700	40.550487	40.119283
502.212994	-2.580500	3.225500	-8.322600	40.544871	40.129678
503.212103	-2.611000	3.225100	-8.420500	40.560417	40.143774
504.212676	-2.578700	3.225400	-8.317000	40.565279	40.135536
505.210074	-2.590000	3.224300	-8.350700	40.553496	40.139762
506.209183	-2.586800	3.225000	-8.341800	40.571669	40.139744
507.211195	-2.589500	3.224900	-8.350800	40.547301	40.149214
508.210895	-2.595400	3.224300	-8.368100	40.569130	40.139388
509.211053	-2.601200	3.225000	-8.388900	40.554729	40.142087
510.213790	-2.578100	3.225100	-8.314200	40.559432	40.134782
511.210709	-2.599200	3.225000	-8.382300	40.562369	40.143543
512.211007	-2.579700	3.225000	-8.318800	40.561525	40.146338
513.213006	-2.603800	3.223400	-8.392600	40.567213	40.138926
514.212295	-2.597100	3.224600	-8.374500	40.553858	40.165600
515.214752	-2.594300	3.224900	-8.366100	40.586628	40.152161
516.213246	-2.604700	3.224300	-8.397900	40.573637	40.155542
517.212792	-2.600000	3.224700	-8.383600	40.564337	40.149515
518.211524	-2.589300	3.224100	-8.348000	40.560407	40.148495
519.210916	-2.603500	3.224500	-8.394900	40.560468	40.148556
520.211338	-2.602800	3.225000	-8.394100	40.567131	40.148670
521.209842	-2.619900	3.224400	-8.447100	40.560423	40.138321
522.210558	-2.636400	3.224500	-8.500600	40.566031	40.139928
523.210726	-2.590400	3.224900	-8.353500	40.564300	40.155301
524.211282	-2.602900	3.224800	-8.393700	40.566021	40.137734
525.210711	-2.596900	3.224200	-8.372600	40.580396	40.152841
526.213507	-2.604400	3.223900	-8.395900	40.579464	40.147178
527.209007	-2.582400	3.223000	-8.322900	40.565976	40.141328
528.210147	-2.615100	3.222800	-8.427700	40.560359	40.145536
529.210197	-2.603900	3.223400	-8.393100	40.577289	40.152645
530.213909	-2.618000	3.223500	-8.438900	40.586987	40.156887
531.211065	-2.603600	3.222200	-8.388900	40.587280	40.150629
532.212923	-2.606100	3.224000	-8.401900	40.589826	40.156088
533.210408	-2.599100	3.223600	-8.378400	40.573402	40.134562
534.209271	-2.585200	3.223000	-8.331200	40.584839	40.143820
535.209758	-2.577600	3.223000	-8.307400	40.593908	40.151073
536.210001	-2.596500	3.222100	-8.365900	40.584324	40.157863
537.211034	-2.620900	3.223500	-8.447900	40.588371	40.146990
538.212195	-2.598400	3.222700	-8.373800	40.578317	40.141663
539.215273	-2.596300	3.223000	-8.367000	40.596163	40.147869
540.210806	-2.604300	3.222900	-8.392800	40.594450	40.134145
541.209842	-2.602200	3.223500	-8.387700	40.592639	40.152714
542.212293	-2.613300	3.223200	-8.422900	40.585771	40.153851
543.210124	-2.617400	3.223700	-8.436900	40.589019	40.145818
544.214506	-2.594300	3.223000	-8.361200	40.596056	40.136844
545.216455	-2.601600	3.222700	-8.383800	40.580678	40.154943
546.212955	-2.601600	3.221800	-8.381300	40.592551	40.158086
547.211310	-2.583100	3.222200	-8.323100	40.590174	40.156072
548.211478	-2.586500	3.222000	-8.333700	40.584486	40.144923
549.210591	-2.571700	3.222000	-8.285700	40.570111	40.131635
550.209437	-2.619600	3.222000	-8.440400	40.590280	40.128519
551.212941	-2.586700	3.222600	-8.335300	40.590023	40.145730
552.210528	-2.588900	3.222800	-8.342900	40.585925	40.139447
553.210328	-2.597400	3.222100	-8.368900	40.592216	40.150108
554.210980	-2.601700	3.222200	-8.382900	40.599280	40.140797
555.212037	-2.604600	3.222400	-8.392100	40.598393	40.151919
556.210913	-2.581600	3.221600	-8.316800	40.586751	40.155195
557.212009	-2.580700	3.221900	-8.314600	40.620141	40.153295
558.213801	-2.632600	3.221700	-8.481000	40.597790	40.145493
559.210806	-2.619600	3.221400	-8.438200	40.603985	40.149507
560.211737	-2.591100	3.221000	-8.345400	40.594011	40.151903
561.210440	-2.614100	3.221800	-8.421300	40.590426	40.150864
562.211595	-2.606700	3.222700	-8.399700	40.608616	40.148681
563.210884	-2.597700	3.221700	-8.368700	40.602078	40.160701
564.214113	-2.619100	3.221300	-8.436300	40.602450	40.151247
565.209442	-2.585100	3.222500	-8.330200	40.602389	40.147910
566.209450	-2.581800	3.222200	-8.319000	40.585937	40.162388
567.209979	-2.607700	3.220300	-8.396900	40.608823	40.170724
568.211627	-2.601900	3.221100	-8.380600	40.603411	40.160578
569.215448	-2.614800	3.221200	-8.422500	40.594129	40.162212
570.212503	-2.598500	3.220300	-8.367700	40.606969	40.161227
571.215896	-2.622600	3.220800	-8.446900	40.596039	40.166669
572.213872	-2.615600	3.220300	-8.422800	40.622002	40.150061
573.213398	-2.600700	3.220900	-8.376400	40.600760	40.145917
574.211741	-2.587700	3.221100	-8.334600	40.612614	40.151225
575.211603	-2.608600	3.219700	-8.398400	40.598099	40.146167
576.212422	-2.592400	3.221500	-8.351000	40.604852	40.158017
577.209746	-2.616300	3.221200	-8.426700	40.616441	40.159784
578.210442	-2.585500	3.221700	-8.329300	40.607444	40.147872
579.209313	-2.603600	3.221400	-8.387200	40.606716	40.150419
580.210634	-2.615100	3.219600	-8.419200	40.589760	40.139281
581.211479	-2.625400	3.219700	-8.452100	40.600746	40.148815
582.210235	-2.589900	3.220600	-8.340500	40.607188	40.135970
583.214668	-2.593500	3.221000	-8.353400	40.610898	40.149872
584.214906	-2.596100	3.221500	-8.363400	40.595823	40.163906
585.210715	-2.584400	3.220700	-8.323200	40.605815	40.158253
586.209146	-2.628300	3.219500	-8.461300	40.604121	40.151827
587.216234	-2.580800	3.220900	-8.312400	40.602472	40.158183
588.213034	-2.599200	3.220800	-8.371300	40.601922	40.135433
589.214884	-2.600400	3.220600	-8.374900	40.613590	40.142011
590.214880	-2.581300	3.220600	-8.313300	40.601266	40.151154
591.214993	-2.599300	3.219900	-8.368900	40.602031	40.141729
592.209301	-2.597900	3.221600	-8.368800	40.624844	40.147082
593.210403	-2.589200	3.219700	-8.335800	40.613949	40.152195
594.210765	-2.588500	3.221300	-8.338100	40.622672	40.160558
595.208802	-2.590300	3.221100	-8.343300	40.612228	40.140648
596.209078	-2.594800	3.221000	-8.357400	40.621076	40.154230
597.210243	-2.575700	3.219500	-8.292300	40.614838	40.158544
598.213732	-2.597900	3.219600	-8.363500	40.624334	40.161129
599.209762	-2.601400	3.220900	-8.378500	40.610509	40.134561
600.209596	-2.603800	3.220100	-8.384400	40.618433	40.142124
601.210629	-2.588600	3.218800	-8.332300	40.626490	40.142177
602.215005	-2.610000	3.220200	-8.404300	40.619979	40.134936
603.211033	-2.595600	3.219500	-8.356500	40.629002	40.148694
604.212178	-2.609700	3.219100	-8.400600	40.622268	40.142321
605.214864	-2.588900	3.220100	-8.336100	40.626785	40.129370
606.211649	-2.612700	3.220500	-8.413400	40.626288	40.133241
607.211519	-2.625500	3.219600	-8.453100	40.614017	40.150444
608.210623	-2.585900	3.219200	-8.324200	40.611364	40.130321
609.212815	-2.600800	3.218600	-8.371100	40.610193	40.123327
610.211935	-2.596400	3.218800	-8.356900	40.625978	40.126015
611.213891	-2.598600	3.219100	-8.364400	40.631525	40.130473
612.211045	-2.595300	3.219400	-8.355000	40.634932	40.125510
613.210682	-2.624800	3.220100	-8.451700	40.634124	40.140716
614.211990	-2.601300	3.219000	-8.373600	40.637808	40.127659
615.211343	-2.616900	3.218500	-8.422300	40.615953	40.125813
616.214264	-2.605700	3.218700	-8.386900	40.629156	40.138657
617.213541	-2.602500	3.219900	-8.379300	40.631721	40.143043
618.214544	-2.616100	3.218000	-8.418000	40.638758	40.147535
619.214903	-2.585900	3.218700	-8.322800	40.633718	40.132303
620.211030	-2.614700	3.218900	-8.416100	40.631163	40.142121
621.210437	-2.556200	3.217800	-8.225300	40.647800	40.153305
622.212725	-2.611300	3.219200	-8.405700	40.635317	40.138997
623.210444	-2.616900	3.218000	-8.420900	40.622459	40.137053
624.209641	-2.612900	3.217400	-8.405900	40.636522	40.136200
625.210510	-2.597900	3.218000	-8.359800	40.627677	40.144820
626.211261	-2.611500	3.219100	-8.406100	40.637916	40.139414
627.212225	-2.585600	3.217300	-8.318300	40.626070	40.132659
628.211320	-2.586800	3.217700	-8.323100	40.647375	40.155064
629.210711	-2.603100	3.218600	-8.378000	40.651696	40.122992
630.211713	-2.624800	3.218000	-8.446400	40.639372	40.121945
631.213435	-2.614000	3.217500	-8.410300	40.625929	40.132882
632.212899	-2.579500	3.218200	-8.300800	40.645787	40.127999
633.213391	-2.598100	3.218300	-8.361300	40.629371	40.126862
634.213248	-2.614000	3.218200	-8.412100	40.632664	40.133796
635.212396	-2.606800	3.217100	-8.386000	40.628128	40.134354
636.211941	-2.604900	3.216300	-8.377900	40.644412	40.132082
637.210236	-2.598500	3.218700	-8.363400	40.644802	40.120099
638.209538	-2.627200	3.217200	-8.451800	40.632664	40.110503
639.209363	-2.594400	3.218800	-8.350100	40.638609	40.129189
640.212774	-2.596100	3.216700	-8.350200	40.651865	40.114427
641.209283	-2.575600	3.218600	-8.289500	40.652805	40.134293
642.211626	-2.617100	3.216600	-8.417700	40.656852	40.135430
643.211128	-2.611200	3.216900	-8.399100	40.649799	40.144387
644.213842	-2.614500	3.217300	-8.411400	40.646836	40.154888
645.210373	-2.580700	3.216800	-8.301300	40.658530	40.144023
646.210506	-2.615400	3.216000	-8.410900	40.653066	40.136736
647.211185	-2.587700	3.217800	-8.326000	40.643926	40.141423
648.209327	-2.625900	3.215700	-8.443500	40.658523	40.140376
649.211966	-2.603500	3.217600	-8.376500	40.645487	40.132794
650.212504	-2.598400	3.217400	-8.359900	40.647290	40.123316
651.211844	-2.609400	3.216000	-8.391600	40.655524	40.133737
652.213167	-2.589900	3.217400	-8.332100	40.640609	40.114084
653.212059	-2.627200	3.215900	-8.448800	40.658897	40.151669
654.212829	-2.600900	3.217700	-8.368100	40.663865	40.146449
655.212037	-2.599000	3.217300	-8.361100	40.652704	40.128732
656.211569	-2.612300	3.216400	-8.401700	40.663220	40.149806
657.211405	-2.584100	3.217300	-8.313500	40.649749	40.142881
658.211535	-2.603200	3.217800	-8.376100	40.650628	40.130658
659.212029	-2.611400	3.215800	-8.397300	40.657054	40.128352
660.210202	-2.613300	3.216800	-8.406100	40.647542	40.142129
661.212216	-2.615500	3.215700	-8.410500	40.662458	40.143221
662.211535	-2.618400	3.217400	-8.423900	40.656974	40.127909
663.211236	-2.590700	3.216300	-8.331800	40.663727	40.124474
664.213341	-2.605400	3.216500	-8.380100	40.638049	40.136271
665.212103	-2.594000	3.217000	-8.344700	40.649220	40.137621
666.211622	-2.585500	3.216600	-8.316200	40.657588	40.135437
667.211163	-2.622100	3.217000	-8.435000	40.656462	40.129580
668.210681	-2.596800	3.217100	-8.354000	40.653063	40.110894
669.215050	-2.589200	3.215700	-8.325300	40.641156	40.143383
670.212264	-2.595500	3.216300	-8.348000	40.641466	40.145877
671.214151	-2.589400	3.216600	-8.328700	40.653233	40.140179
672.213310	-2.592800	3.216100	-8.338800	40.647617	40.138928
673.209774	-2.588800	3.214800	-8.322200	40.647848	40.119142
674.211872	-2.603700	3.216500	-8.374500	40.659630	40.151674
675.211087	-2.589900	3.216500	-8.329900	40.650349	40.140206
676.210734	-2.585300	3.216700	-8.316000	40.658955	40.138261
677.209367	-2.573500	3.216300	-8.276700	40.638567	40.125507
678.210450	-2.597700	3.215600	-8.352600	40.655859	40.128613
679.209698	-2.592000	3.216400	-8.336500	40.665833	40.142230
680.213321	-2.598700	3.215700	-8.356300	40.664848	40.159441
681.212049	-2.599200	3.216000	-8.358800	40.664582	40.155536
682.213267	-2.601200	3.215100	-8.362900	40.659266	40.150218
683.213802	-2.623100	3.215900	-8.435500	40.670482	40.150157
684.212400	-2.598500	3.215900	-8.356400	40.665113	40.160799
685.210571	-2.585300	3.216100	-8.314600	40.665113	40.156432
686.211418	-2.620700	3.215300	-8.425900	40.660073	40.152845
687.211943	-2.600000	3.215600	-8.360300	40.664269	40.142121
688.213006	-2.598000	3.215900	-8.354900	40.664120	40.153618
689.211535	-2.621100	3.215800	-8.428600	40.661502	40.145176
690.211418	-2.595400	3.216300	-8.347700	40.669327	40.160647
691.209530	-2.592300	3.215300	-8.334800	40.649948	40.141624
692.211054	-2.622500	3.215600	-8.432800	40.662938	40.144066
693.210640	-2.607500	3.214000	-8.379800	40.657747	40.143603
694.212125	-2.596900	3.215100	-8.349200	40.676122	40.140150
695.209423	-2.615800	3.215300	-8.410600	40.685448	40.142929
696.212205	-2.597100	3.215800	-8.351500	40.663053	40.139813
697.210836	-2.608600	3.214400	-8.384800	40.652619	40.142841
698.213238	-2.599100	3.215800	-8.358000	40.684880	40.159829
699.213150	-2.600900	3.214800	-8.360500	40.670142	40.146541
700.210467	-2.603500	3.215300	-8.370600	40.669680	40.153722
701.214376	-2.629200	3.214100	-8.450100	40.650434	40.147570
702.213818	-2.601200	3.214900	-8.362500	40.666149	40.164746
703.211998	-2.601200	3.215200	-8.362800	40.667248	40.155656
704.210070	-2.610800	3.215400	-8.394300	40.681595	40.138710
705.210721	-2.598100	3.215600	-8.353800	40.678605	40.143726
706.212406	-2.615100	3.214500	-8.405700	40.665599	40.141268
707.210026	-2.606600	3.214700	-8.378600	40.665713	40.160307
708.210171	-2.572200	3.214000	-8.266600	40.683611	40.141090
709.209948	-2.565400	3.214500	-8.246200	40.680326	40.131981
710.210020	-2.632000	3.215000	-8.461400	40.677745	40.132675
711.213655	-2.595500	3.214300	-8.342400	40.663015	40.136864
712.211819	-2.604000	3.214200	-8.369100	40.679670	40.126594
713.209389	-2.608700	3.214800	-8.386100	40.671409	40.144533
714.212720	-2.590000	3.215100	-8.326800	40.654622	40.126283
715.209401	-2.592200	3.213800	-8.330400	40.674941	40.145155
716.210202	-2.596300	3.215300	-8.348000	40.683982	40.148013
717.214985	-2.602800	3.214600	-8.366900	40.688064	40.134627
718.212883	-2.593600	3.214100	-8.335800	40.682705	40.143096
719.214645	-2.615400	3.213100	-8.403400	40.673210	40.143423
720.214095	-2.608500	3.214700	-8.385100	40.672572	40.128228
721.211771	-2.591900	3.214600	-8.331500	40.676600	40.140264
722.211217	-2.593900	3.214800	-8.338900	40.685278	40.123106
723.212857	-2.593400	3.213700	-8.334000	40.673167	40.140469
724.209883	-2.605800	3.215100	-8.377700	40.679022	40.127765
725.211085	-2.588300	3.214100	-8.319100	40.690318	40.129968
726.210689	-2.607800	3.214800	-8.383100	40.665732	40.146132
727.211814	-2.618000	3.214500	-8.415500	40.682556	40.122203
728.212032	-2.617300	3.213400	-8.410300	40.687942	40.137416
729.213932	-2.577400	3.214100	-8.283800	40.693364	40.129375
730.210960	-2.590400	3.214600	-8.326700	40.683133	40.128966
731.212993	-2.581900	3.214200	-8.298200	40.678733	40.133299
732.213611	-2.605000	3.214500	-8.373000	40.685103	40.130209
733.209555	-2.609900	3.213100	-8.385500	40.684686	40.119602
734.212353	-2.597800	3.213800	-8.348100	40.667402	40.144892
735.215982	-2.623900	3.213600	-8.431800	40.674750	40.141688
736.211088	-2.592400	3.214500	-8.332700	40.680055	40.145904
737.210936	-2.600100	3.213700	-8.355800	40.674848	40.134144
738.211549	-2.604500	3.214100	-8.371200	40.676561	40.122391
739.210488	-2.593900	3.213900	-8.336100	40.692772	40.123688
740.210950	-2.593400	3.214500	-8.336300	40.694155	40.132350
741.210077	-2.613900	3.214300	-8.401300	40.684787	40.110968
742.213483	-2.594400	3.214600	-8.339500	40.672710	40.135645
743.209682	-2.600300	3.214100	-8.357000	40.688008	40.138939
744.213427	-2.607400	3.213300	-8.378000	40.696659	40.139223
745.211597	-2.625200	3.213400	-8.435600	40.688781	40.137164
746.209589	-2.610700	3.213500	-8.388800	40.682179	40.118550
747.209301	-2.601800	3.214100	-8.361600	40.663432	40.130366
748.212977	-2.585700	3.212500	-8.306400	40.679091	40.119100
749.212654	-2.615300	3.212600	-8.401900	40.687326	40.125154
750.215099	-2.598700	3.212300	-8.347300	40.686465	40.133392
751.211582	-2.605100	3.212000	-8.367100	40.681914	40.134298
752.211438	-2.596000	3.211700	-8.337600	40.690175	40.128732
753.210292	-2.614700	3.212900	-8.400300	40.670530	40.136375
754.210193	-2.606300	3.211100	-8.369000	40.690849	40.131591
755.211379	-2.593900	3.212900	-8.333800	40.684256	40.133001
756.210718	-2.592000	3.213400	-8.328900	40.679288	40.140041
757.211346	-2.614300	3.212000	-8.396500	40.695411	40.151440
758.214193	-2.577800	3.213100	-8.281800	40.692634	40.142474
759.208958	-2.603500	3.212400	-8.363000	40.676380	40.138952
760.210442	-2.589500	3.213700	-8.321600	40.690655	40.124482
761.216103	-2.611000	3.212800	-8.387800	40.689333	40.132258
762.211041	-2.591600	3.213800	-8.328700	40.675546	40.163230
763.214191	-2.591500	3.212900	-8.325900	40.677081	40.154575
764.214293	-2.601900	3.212500	-8.358500	40.694304	40.122673
765.211705	-2.625300	3.212400	-8.433100	40.676274	40.139210
766.212448	-2.574100	3.212800	-8.269400	40.688821	40.133565
767.211524	-2.578200	3.212700	-8.282800	40.693125	40.142238
768.210601	-2.595000	3.211100	-8.332600	40.694838	40.124663
769.208738	-2.600800	3.212900	-8.355700	40.707934	40.137401
770.211664	-2.600800	3.213100	-8.356600	40.702504	40.136699
771.213428	-2.589900	3.213100	-8.321100	40.691253	40.132723
772.212475	-2.613700	3.212800	-8.397400	40.697066	40.122888
773.210172	-2.607800	3.212800	-8.377900	40.686054	40.140987
774.211174	-2.602500	3.211700	-8.357900	40.691290	40.139675
775.208909	-2.611600	3.212800	-8.390100	40.685993	40.124184
776.213803	-2.569100	3.213400	-8.255300	40.674946	40.128419
777.212131	-2.584600	3.212400	-8.302300	40.685602	40.126342
778.210459	-2.630600	3.211600	-8.447900	40.688664	40.113391
779.212755	-2.613800	3.212500	-8.396700	40.687485	40.126405
780.214543	-2.604000	3.211800	-8.363100	40.691086	40.134011
781.214690	-2.626900	3.211000	-8.434800	40.676473	40.135770
782.215261	-2.591500	3.213100	-8.326400	40.686526	40.119259
783.211525	-2.591000	3.212200	-8.322500	40.683146	40.144629
784.214603	-2.613400	3.211500	-8.392000	40.700358	40.149111
785.213585	-2.607700	3.211400	-8.374300	40.677379	40.138859
786.211374	-2.583300	3.211200	-8.295100	40.690733	40.127107
787.209092	-2.593900	3.212400	-8.332700	40.677591	40.120874
788.209612	-2.621400	3.210400	-8.414800	40.693704	40.135539
789.211535	-2.614200	3.210900	-8.393800	40.696383	40.136763
790.210306	-2.600100	3.212500	-8.352700	40.686970	40.142631
791.210571	-2.609100	3.211200	-8.377700	40.680175	40.148207
792.212032	-2.630700	3.211100	-8.447000	40.687326	40.130977
793.212459	-2.592700	3.210500	-8.323600	40.693067	40.117796
794.210358	-2.572100	3.212100	-8.261300	40.698292	40.129211
795.208686	-2.589800	3.211000	-8.315100	40.684123	40.111032
796.210298	-2.583300	3.212800	-8.299600	40.695090	40.113269
797.210309	-2.586700	3.211400	-8.306300	40.683122	40.133687
798.212779	-2.609000	3.211500	-8.378100	40.680690	40.129070
799.212205	-2.588300	3.210700	-8.310200	40.690061	40.123523
800.212574	-2.576700	3.212100	-8.276500	40.676210	40.122405
801.215998	-2.609700	3.211600	-8.381000	40.678412	40.130430
802.214861	-2.579200	3.211200	-8.282000	40.691641	40.129471
803.211413	-2.595300	3.211000	-8.333200	40.703016	40.125566
804.213176	-2.575400	3.211800	-8.270900	40.699023	40.119387
805.212392	-2.604300	3.210700	-8.361000	40.695528	40.124990
806.210614	-2.606800	3.211700	-8.372100	40.698784	40.142804
807.212190	-2.614700	3.211000	-8.395300	40.689833	40.137489
808.211515	-2.608200	3.211900	-8.377000	40.695733	40.124830
809.211262	-2.595700	3.212100	-8.337400	40.690011	40.122381
810.213029	-2.603900	3.209900	-8.358100	40.686835	40.134490
811.214545	-2.612700	3.211100	-8.389400	40.681928	40.121937
812.210504	-2.621400	3.209400	-8.413000	40.690154	40.133443
813.210160	-2.609400	3.211200	-8.378600	40.707225	40.128685
814.211847	-2.618100	3.210300	-8.405100	40.681423	40.119249
815.212717	-2.621300	3.211100	-8.416500	40.698388	40.129671
816.215905	-2.605900	3.211500	-8.368200	40.700696	40.126884
817.213253	-2.556600	3.210700	-8.207900	40.688710	40.118168
818.210968	-2.600900	3.210200	-8.348800	40.694814	40.129735
819.211153	-2.568900	3.211200	-8.248900	40.697921	40.131387
820.209967	-2.584900	3.211000	-8.300000	40.691729	40.123736
821.209533	-2.589600	3.211500	-8.315800	40.687728	40.134655
822.211525	-2.587400	3.211400	-8.308900	40.679982	40.142191
823.208953	-2.607400	3.211300	-8.372500	40.691642	40.132383
824.210130	-2.629100	3.209900	-8.438700	40.712590	40.144606
825.213722	-2.556900	3.212200	-8.213400	40.683790	40.148184
826.211507	-2.576500	3.210800	-8.272100	40.680356	40.163674
827.209737	-2.593100	3.211700	-8.327900	40.702486	40.160338
828.214784	-2.575800	3.210700	-8.269800	40.686870	40.135617
829.212081	-2.605800	3.210200	-8.365000	40.693785	40.151633
830.211614	-2.606600	3.209700	-8.366100	40.689401	40.141060
831.210624	-2.622000	3.210100	-8.416600	40.709951	40.141602
832.213619	-2.616700	3.209700	-8.398600	40.689927	40.136491
833.213305	-2.607900	3.211000	-8.374000	40.706876	40.139618
834.214007	-2.606700	3.209900	-8.367000	40.714303	40.149960
835.213619	-2.631000	3.209800	-8.444900	40.698998	40.136104
836.213722	-2.603100	3.209600	-8.354400	40.702583	40.134231
837.210063	-2.602700	3.210400	-8.355600	40.705246	40.131436
838.209568	-2.596200	3.210400	-8.333900	40.692479	40.150327
839.208821	-2.572700	3.209500	-8.257000	40.697023	40.161059
840.211587	-2.590200	3.211200	-8.317400	40.689137	40.142615
841.210082	-2.588900	3.210300	-8.310700	40.681800	40.137459
842.210714	-2.593800	3.209200	-8.323300	40.703123	40.138774
843.213083	-2.602100	3.210200	-8.353200	40.689105	40.137853
844.213238	-2.607500	3.211000	-8.372400	40.692300	40.129402
845.210712	-2.590500	3.211000	-8.317400	40.691947	40.125046
846.210827	-2.601000	3.210400	-8.350100	40.691549	40.138114
847.211739	-2.586400	3.210100	-8.302100	40.688710	40.126903
848.215169	-2.601900	3.210600	-8.353300	40.690707	40.128901
849.211613	-2.601600	3.210100	-8.351400	40.693087	40.119999
850.217257	-2.554700	3.210200	-8.199900	40.680339	40.138545
851.212883	-2.611300	3.209400	-8.380300	40.687004	40.131383
852.213329	-2.617600	3.209900	-8.402100	40.685079	40.144015
853.212827	-2.597100	3.210600	-8.338100	40.690342	40.128536
854.212474	-2.600100	3.209800	-8.345600	40.695268	40.135284
855.210022	-2.595000	3.210900	-8.331700	40.670284	40.132853
856.209627	-2.596600	3.208800	-8.331600	40.684464	40.140488
857.211139	-2.618500	3.210000	-8.405100	40.702786	40.152267
858.211470	-2.586800	3.210000	-8.303400	40.676392	40.148426
859.211616	-2.595000	3.209600	-8.328700	40.695293	40.137856
860.210706	-2.587100	3.208700	-8.300800	40.697503	40.142250
861.213526	-2.606900	3.209900	-8.367900	40.699784	40.133978
862.210202	-2.583900	3.209500	-8.293100	40.685846	40.141871
863.211910	-2.580300	3.209000	-8.279800	40.683674	40.116406
864.213454	-2.605400	3.208200	-8.358300	40.681492	40.141518
865.210584	-2.601800	3.209100	-8.349200	40.693038	40.117039
866.212292	-2.592800	3.209000	-8.320400	40.678914	40.144035
867.211366	-2.590600	3.208500	-8.311400	40.688585	40.126778
868.211225	-2.627400	3.209500	-8.432500	40.694523	40.122892
869.213617	-2.570200	3.209400	-8.248700	40.699555	40.120283
870.214969	-2.608300	3.208200	-8.367300	40.702253	40.135357
871.213029	-2.569800	3.209500	-8.247700	40.689353	40.136281
872.212462	-2.644800	3.207400	-8.482400	40.693294	40.140588
873.214888	-2.592500	3.209100	-8.319400	40.693393	40.125401
874.215097	-2.601400	3.208400	-8.346300	40.694973	40.125162
875.211674	-2.609400	3.209000	-8.373100	40.702036	40.133684
876.212271	-2.600000	3.209700	-8.345200	40.705189	40.131015
877.212197	-2.611500	3.209600	-8.381600	40.696564	40.145679
878.212009	-2.606300	3.209100	-8.363500	40.703256	40.121075
879.210389	-2.596400	3.208300	-8.329900	40.704525	40.116885
880.210267	-2.561900	3.209100	-8.221200	40.690152	40.134897
881.210649	-2.590900	3.208400	-8.312300	40.704324	40.121779
882.213662	-2.589600	3.208900	-8.309800	40.711971	40.130158
883.212203	-2.607500	3.208600	-8.366000	40.711335	40.132068
884.215199	-2.611600	3.209100	-8.380800	40.695249	40.131989
885.211887	-2.602200	3.208300	-8.348200	40.690644	40.132114
886.210069	-2.607200	3.208600	-8.365300	40.679181	40.115550
887.210209	-2.599900	3.209100	-8.343200	40.698560	40.116741
888.214907	-2.601400	3.209200	-8.347900	40.696832	40.117196
889.214272	-2.586700	3.209900	-8.301900	40.696548	40.122734
890.212700	-2.585300	3.209400	-8.297300	40.692414	40.129153
891.212240	-2.607200	3.208500	-8.364200	40.695245	40.132712
892.209081	-2.579400	3.208400	-8.275600	40.682008	40.129661
893.210736	-2.588400	3.209100	-8.306200	40.704286	40.126836
894.209966	-2.578400	3.209200	-8.273700	40.692565	40.137311
895.209979	-2.607900	3.207200	-8.363500	40.708325	40.143979
896.212700	-2.606900	3.208000	-8.362400	40.710197	40.142577
897.216154	-2.582100	3.209000	-8.286100	40.711387	40.142311
898.216290	-2.585400	3.209300	-8.297200	40.709720	40.142099
899.212726	-2.579500	3.208300	-8.275600	40.695434	40.140181
900.213459	-2.592600	3.207800	-8.315900	40.690386	40.110019
901.211505	-2.591500	3.209000	-8.315700	40.699909	40.132284
902.212898	-2.580600	3.207500	-8.276800	40.694149	40.148358
903.211776	-2.599700	3.207000	-8.336600	40.706332	40.144897
904.213493	-2.577000	3.208200	-8.267000	40.694115	40.140681
905.213973	-2.559000	3.208800	-8.210500	40.688321	40.137068
906.214082	-2.588300	3.209100	-8.305700	40.701720	40.116262
907.211736	-2.602900	3.207400	-8.348400	40.698890	40.119254
908.213205	-2.624500	3.208000	-8.418800	40.711322	40.136059
909.211043	-2.605900	3.207000	-8.357000	40.721508	40.112403
910.211624	-2.605300	3.207200	-8.355800	40.703763	40.119398
911.211774	-2.591100	3.208700	-8.313500	40.691261	40.115625
912.211014	-2.618500	3.207500	-8.398500	40.702311	40.118673
913.211987	-2.605200	3.207600	-8.355800	40.701061	40.118878
914.211998	-2.591000	3.208000	-8.311800	40.708965	40.136249
915.212673	-2.612400	3.206500	-8.376800	40.706127	40.135957
916.212589	-2.607300	3.206800	-8.361000	40.697548	40.118275
917.210167	-2.600100	3.208100	-8.340700	40.698552	40.136749
918.212519	-2.590600	3.207800	-8.309800	40.693743	40.126479
919.210121	-2.572900	3.206800	-8.250600	40.702068	40.139539
920.213918	-2.593300	3.208400	-8.320400	40.696134	40.125596
921.213464	-2.598300	3.207900	-8.334700	40.704350	40.134179
922.212292	-2.608900	3.207400	-8.367700	40.687138	40.128606
923.214508	-2.602200	3.207600	-8.346200	40.707768	40.143785
924.214322	-2.598800	3.206900	-8.333500	40.705843	40.137128
925.213262	-2.593100	3.206800	-8.315400	40.689616	40.113616
926.214737	-2.561200	3.207700	-8.215600	40.714028	40.118385
927.212318	-2.607400	3.208200	-8.365000	40.687987	40.107618
928.210695	-2.613300	3.206000	-8.378400	40.703542	40.117722
929.212158	-2.613000	3.206400	-8.377800	40.706240	40.121877
930.210607	-2.594500	3.207200	-8.321100	40.703667	40.125853
931.210096	-2.601900	3.207100	-8.344000	40.702205	40.119659
932.213129	-2.612300	3.206100	-8.374700	40.707620	40.137086
933.211473	-2.607600	3.208500	-8.366000	40.694781	40.144259
934.213409	-2.617200	3.206400	-8.391400	40.723130	40.131131
935.209941	-2.611700	3.207700	-8.377000	40.708980	40.134444
936.213822	-2.628300	3.205200	-8.423800	40.705725	40.143562
937.214288	-2.618400	3.206600	-8.395700	40.690280	40.138664
938.212759	-2.599500	3.206500	-8.334700	40.699685	40.140794
939.214915	-2.619900	3.206100	-8.399500	40.707245	40.118150
940.214877	-2.586700	3.206100	-8.293000	40.701257	40.122351
941.213285	-2.600400	3.205500	-8.335100	40.700799	40.117525
942.211390	-2.619100	3.206600	-8.398100	40.697267	40.128913
943.211006	-2.578400	3.206900	-8.268400	40.687934	40.132314
944.210754	-2.602000	3.207600	-8.345800	40.692292	40.122480
945.210640	-2.613600	3.207900	-8.383900	40.694592	40.109495
946.210405	-2.620100	3.207200	-8.403300	40.684042	40.123689
947.210574	-2.590900	3.206000	-8.306100	40.700902	40.126726
948.211413	-2.598800	3.206700	-8.333200	40.703228	40.123958
949.211050	-2.585300	3.208200	-8.293500	40.695305	40.143691
950.210827	-2.616000	3.206500	-8.388000	40.696104	40.130297
951.211007	-2.600300	3.206000	-8.335900	40.691758	40.141234
952.211383	-2.599500	3.208000	-8.338800	40.706143	40.133789
953.212322	-2.600300	3.207400	-8.339900	40.703020	40.116835
954.212012	-2.604000	3.206600	-8.349400	40.689890	40.117529
955.211857	-2.601300	3.207800	-8.344500	40.699864	40.143157
956.212261	-2.638200	3.207200	-8.461000	40.697507	40.129517
957.210113	-2.596900	3.206800	-8.327200	40.685263	40.133645
958.215174	-2.597600	3.206100	-8.328000	40.695794	40.136174
959.214042	-2.606200	3.207200	-8.358400	40.687404	40.141610
960.214643	-2.621500	3.205600	-8.403300	40.686029	40.132227
961.211030	-2.603200	3.206700	-8.347200	40.705586	40.117219
962.212101	-2.597400	3.205900	-8.326700	40.696014	40.131663
963.215139	-2.617500	3.206900	-8.393900	40.692164	40.124900
964.210534	-2.596400	3.205100	-8.321100	40.703911	40.138472
965.212639	-2.604200	3.206700	-8.350600	40.682884	40.140000
966.215269	-2.611400	3.205900	-8.371300	40.708804	40.122257
967.213824	-2.604700	3.206700	-8.352100	40.680118	40.120127
968.214397	-2.608300	3.207100	-8.364900	40.684521	40.133267
969.212734	-2.600600	3.206700	-8.339500	40.706625	40.144462
970.209921	-2.597500	3.206900	-8.329700	40.688357	40.142199
971.211428	-2.592700	3.205600	-8.311100	40.699805	40.135091
972.211164	-2.610200	3.206200	-8.368700	40.690274	40.129923
973.212008	-2.580900	3.206400	-8.275100	40.701696	40.151176
974.211131	-2.574400	3.205500	-8.252100	40.690490	40.130504
975.214731	-2.608600	3.205500	-8.360900	40.692817	40.136107
976.213449	-2.603100	3.206500	-8.346600	40.690767	40.144247
977.210337	-2.594100	3.206400	-8.317400	40.687114	40.133677
978.212662	-2.597900	3.206400	-8.329600	40.699358	40.131369
979.209747	-2.577600	3.206900	-8.265900	40.689032	40.154885
980.209774	-2.571000	3.206400	-8.243300	40.702386	40.149319
981.211411	-2.588500	3.205400	-8.296700	40.674030	40.146063
982.209041	-2.600800	3.205400	-8.336600	40.682582	40.151344
983.210687	-2.599900	3.206000	-8.334800	40.683640	40.144031
984.211412	-2.579200	3.206400	-8.269300	40.701643	40.146393
985.213067	-2.607300	3.206600	-8.360500	40.707074	40.133629
986.211019	-2.605100	3.204900	-8.348300	40.697225	40.137605
987.210012	-2.584300	3.205400	-8.283300	40.707510	40.137340
988.213421	-2.608800	3.206100	-8.363400	40.693731	40.146484
989.213147	-2.601400	3.204700	-8.336600	40.702383	40.137306
990.212656	-2.630800	3.205900	-8.433400	40.697877	40.143717
991.211825	-2.619800	3.204900	-8.396100	40.687691	40.121517
992.212997	-2.600300	3.206500	-8.337700	40.694524	40.117434
993.212156	-2.595200	3.205400	-8.318400	40.711621	40.116342
994.216024	-2.592900	3.205600	-8.311800	40.693008	40.133387
995.214470	-2.587300	3.204200	-8.290100	40.700106	40.143399
996.209713	-2.595400	3.206200	-8.320900	40.693550	40.132837
997.211725	-2.596300	3.206000	-8.323000	40.699159	40.146091
998.209370	-2.591300	3.206300	-8.308200	40.704164	40.139089
999.211159	-2.590600	3.206300	-8.305700	40.693713	40.148286
1000.212157	-2.615100	3.205100	-8.381400	40.685187	40.151402
1001.211785	-2.628100	3.204900	-8.422600	40.692959	40.152991
1002.210313	-2.616500	3.204600	-8.384500	40.696927	40.129665
1003.211974	-2.599600	3.205500	-8.333100	40.690663	40.147054
1004.214755	-2.601800	3.204600	-8.337700	40.695002	40.144116
1005.213603	-2.597000	3.205400	-8.324100	40.691827	40.144579
1006.210736	-2.585600	3.205600	-8.288400	40.689504	40.137524
1007.213305	-2.602500	3.203400	-8.336600	40.692665	40.131223
1008.212059	-2.575500	3.205200	-8.254700	40.679265	40.140746
1009.213131	-2.610700	3.205400	-8.367400	40.699948	40.119221
1010.214868	-2.604400	3.205500	-8.347700	40.688371	40.133843
1011.211537	-2.590900	3.203800	-8.300500	40.693650	40.141672
1012.210640	-2.604600	3.205900	-8.349700	40.690884	40.128350
1013.212326	-2.593000	3.205300	-8.310900	40.678595	40.127702
1014.209014	-2.588600	3.205200	-8.295900	40.699437	40.146005
1015.211874	-2.580200	3.204700	-8.268500	40.688436	40.143006
1016.212268	-2.582000	3.204800	-8.274500	40.702412	40.145342
1017.210912	-2.589800	3.204100	-8.297900	40.683502	40.126060
1018.213439	-2.575900	3.204700	-8.255200	40.685083	40.134920
1019.214016	-2.647600	3.204000	-8.482200	40.692643	40.129745
1020.209326	-2.601100	3.204000	-8.333800	40.688243	40.127164
1021.209790	-2.619700	3.204900	-8.395800	40.685466	40.130936
1022.211054	-2.595500	3.206100	-8.321100	40.694924	40.130572
1023.212706	-2.603200	3.204300	-8.340600	40.681305	40.139875
1024.214771	-2.600700	3.204900	-8.334600	40.695439	40.124537
1025.212630	-2.607400	3.204200	-8.354400	40.693514	40.131346
1026.216174	-2.602000	3.204200	-8.337300	40.701484	40.133859
1027.211770	-2.604100	3.204600	-8.344900	40.681343	40.135546
1028.217104	-2.602000	3.204300	-8.337600	40.684803	40.132457
1029.209960	-2.598800	3.205400	-8.329500	40.693249	40.132536
1030.215716	-2.603100	3.204400	-8.340700	40.697713	40.143189
1031.212195	-2.612800	3.204600	-8.372600	40.690100	40.149767
1032.212634	-2.603100	3.203500	-8.338800	40.705550	40.146298
1033.213588	-2.603300	3.204000	-8.340700	40.682116	40.147238
1034.210738	-2.599200	3.205500	-8.331300	40.683954	40.139615
1035.210921	-2.578500	3.204100	-8.261600	40.686084	40.148296
1036.210266	-2.599600	3.203500	-8.327300	40.689900	40.148110
1037.217138	-2.613300	3.203700	-8.371900	40.692598	40.154449
1038.213328	-2.598500	3.204400	-8.326900	40.699101	40.154403
1039.212816	-2.629500	3.205300	-8.427900	40.694755	40.136226
1040.211649	-2.603600	3.205700	-8.346200	40.705039	40.137780
1041.214130	-2.594800	3.205000	-8.316100	40.673920	40.127756
1042.212669	-2.597300	3.204600	-8.322800	40.701580	40.141962
1043.214039	-2.594600	3.204800	-8.315200	40.677808	40.154210
1044.211408	-2.594200	3.204700	-8.313500	40.686479	40.138501
1045.212074	-2.616000	3.203400	-8.379500	40.682094	40.148672
1046.212620	-2.584900	3.204900	-8.283800	40.691625	40.150564
1047.210881	-2.603200	3.204200	-8.341300	40.679560	40.144680
1048.211896	-2.596800	3.204800	-8.321800	40.676252	40.142463
1049.211699	-2.590200	3.203900	-8.298400	40.692550	40.134384
1050.211021	-2.595500	3.204000	-8.315600	40.674777	40.133345
1051.211743	-2.630700	3.204400	-8.429300	40.691439	40.156565
1052.211734	-2.601100	3.204800	-8.335000	40.691716	40.136097
1053.211216	-2.621600	3.203700	-8.398900	40.680716	40.141834
1054.212826	-2.608000	3.203800	-8.355200	40.671337	40.126628
1055.210962	-2.622900	3.203100	-8.401200	40.675683	40.140438
1056.210124	-2.589000	3.204300	-8.295900	40.684619	40.147194
1057.212008	-2.622000	3.204000	-8.400800	40.677851	40.157529
1058.212619	-2.598000	3.204400	-8.324600	40.690307	40.147425
1059.214433	-2.620100	3.203800	-8.393600	40.691212	40.144692
1060.216145	-2.566300	3.203900	-8.221600	40.686548	40.142573
1061.212883	-2.618600	3.203200	-8.387700	40.690610	40.147729
1062.214357	-2.631700	3.204100	-8.431900	40.690266	40.128823
1063.214202	-2.616500	3.203400	-8.381700	40.695233	40.148715
1064.211323	-2.635600	3.203900	-8.443800	40.684399	40.150978
1065.210329	-2.605100	3.203300	-8.344100	40.691952	40.130146
1066.212859	-2.610700	3.204100	-8.364100	40.686336	40.135446
1067.212433	-2.584900	3.203700	-8.281000	40.686098	40.146854
1068.209387	-2.606600	3.204100	-8.351400	40.681084	40.149845
1069.213058	-2.585800	3.204000	-8.284600	40.704173	40.143465
1070.214626	-2.607700	3.204200	-8.355600	40.687731	40.147760
1071.212755	-2.630400	3.202900	-8.424600	40.668746	40.140049
1072.213670	-2.592900	3.202500	-8.303600	40.681168	40.151749
1073.214808	-2.591800	3.202500	-8.299900	40.698490	40.132320
1074.211702	-2.604900	3.204500	-8.347200	40.685757	40.157796
1075.212846	-2.602300	3.203100	-8.335100	40.688607	40.136627
1076.211524	-2.592500	3.205300	-8.309200	40.689653	40.144224
1077.211086	-2.615900	3.203400	-8.379800	40.685724	40.160309
1078.212937	-2.587900	3.202800	-8.288100	40.681450	40.145479
1079.210785	-2.592900	3.203300	-8.305400	40.670627	40.150302
1080.212920	-2.604500	3.204100	-8.345000	40.683030	40.162710
1081.213030	-2.598300	3.203000	-8.321900	40.681461	40.156773
1082.212073	-2.574000	3.202900	-8.244100	40.682950	40.136063
1083.212604	-2.612200	3.203400	-8.367600	40.686937	40.158612
1084.212526	-2.613800	3.203600	-8.373100	40.687639	40.135294
1085.209249	-2.601700	3.203200	-8.333400	40.669950	40.127060
1086.211172	-2.616900	3.202200	-8.379700	40.682808	40.137012
1087.211580	-2.602600	3.204000	-8.338400	40.688113	40.139772
1088.212335	-2.623700	3.203000	-8.403300	40.693020	40.137766
1089.211734	-2.580500	3.203600	-8.266600	40.683475	40.154785
1090.214028	-2.581100	3.203700	-8.268200	40.671092	40.149675
1091.211431	-2.590000	3.202900	-8.295200	40.681801	40.140372
1092.211539	-2.591600	3.202200	-8.298600	40.678050	40.140622
1093.214382	-2.593000	3.202700	-8.304400	40.671521	40.133363
1094.211348	-2.612000	3.203000	-8.365900	40.677201	40.145233
1095.213335	-2.615300	3.201800	-8.373400	40.679774	40.164548
1096.214077	-2.607100	3.202600	-8.349000	40.689476	40.134220
1097.215789	-2.593100	3.202400	-8.303900	40.675103	40.118749
1098.211380	-2.625500	3.202400	-8.408100	40.687252	40.140002
1099.210537	-2.618900	3.204100	-8.390800	40.668878	40.128535
1100.211254	-2.605600	3.202500	-8.343900	40.665172	40.129195
1101.211311	-2.590200	3.202900	-8.295800	40.686648	40.137942
1102.209816	-2.594500	3.202700	-8.309300	40.662657	40.137597
1103.211821	-2.613900	3.201600	-8.368800	40.681911	40.135387
1104.211142	-2.584500	3.204700	-8.282300	40.675216	40.147978
1105.211873	-2.594400	3.202800	-8.309200	40.669210	40.139058
1106.214580	-2.605800	3.202500	-8.344700	40.656019	40.145878
1107.209827	-2.607200	3.201400	-8.346500	40.673163	40.163757
1108.214430	-2.593300	3.202000	-8.303800	40.665305	40.134423
1109.215774	-2.611000	3.202100	-8.360400	40.686272	40.148484
1110.216174	-2.610800	3.202900	-8.362100	40.664953	40.143533
1111.212584	-2.567400	3.202700	-8.222300	40.674867	40.152360
1112.215344	-2.596700	3.202700	-8.316100	40.675773	40.130702
1113.214088	-2.593100	3.203200	-8.305900	40.667497	40.148990
1114.211639	-2.605500	3.201500	-8.341400	40.680666	40.143967
1115.211047	-2.595800	3.203500	-8.315400	40.673614	40.136913
1116.210937	-2.608300	3.203300	-8.354500	40.684726	40.134927
1117.212295	-2.585900	3.203300	-8.283000	40.648669	40.154175
1118.211112	-2.649700	3.202300	-8.485100	40.680914	40.151131
1119.213791	-2.594500	3.203400	-8.311100	40.669425	40.145824
1120.217888	-2.615700	3.202600	-8.375900	40.661752	40.142514
1121.211005	-2.613900	3.202600	-8.371100	40.651869	40.134448
1122.210136	-2.608200	3.202400	-8.352300	40.675277	40.134937
1123.211436	-2.603000	3.202300	-8.335300	40.681011	40.126480
1124.212316	-2.615100	3.203000	-8.375700	40.665202	40.158340
1125.211953	-2.604400	3.203300	-8.341800	40.682637	40.134658
1126.212825	-2.599900	3.203700	-8.329000	40.664672	40.135974
1127.211802	-2.594900	3.202800	-8.310800	40.673157	40.140459
1128.216984	-2.624300	3.202600	-8.404300	40.673984	40.131096
1129.212363	-2.592700	3.202600	-8.302800	40.683845	40.133318
1130.214224	-2.586100	3.203500	-8.283700	40.667156	40.136639
1131.215725	-2.605600	3.202400	-8.343700	40.678877	40.137447
1132.217613	-2.578500	3.203100	-8.258800	40.678321	40.121604
1133.215663	-2.589500	3.201900	-8.291000	40.670238	40.117522
1134.210740	-2.580600	3.202400	-8.264200	40.670349	40.134738
1135.211345	-2.629600	3.201000	-8.417400	40.681157	40.135360
1136.211583	-2.586900	3.201200	-8.280400	40.679020	40.127399
1137.211873	-2.584200	3.201900	-8.273800	40.675031	40.121588
1138.211952	-2.606300	3.201300	-8.343200	40.680632	40.141750
1139.211654	-2.587200	3.201500	-8.282200	40.674838	40.140321
1140.216393	-2.588600	3.203300	-8.292200	40.675816	40.140572
1141.218562	-2.595300	3.203500	-8.314000	40.676431	40.147009
1142.212241	-2.610700	3.202300	-8.359900	40.654028	40.139883
1143.214551	-2.613600	3.201300	-8.366300	40.683064	40.125258
1144.211493	-2.580700	3.202000	-8.263200	40.672620	40.133734
1145.212299	-2.615000	3.201200	-8.370900	40.669339	40.132635
1146.210802	-2.600900	3.201700	-8.327000	40.679987	40.151659
1147.211328	-2.589200	3.200400	-8.285800	40.659555	40.135222
1148.212047	-2.610000	3.201300	-8.355000	40.668609	40.127902
1149.211449	-2.600800	3.201800	-8.326500	40.674396	40.145338
1150.210929	-2.586800	3.201600	-8.281600	40.687300	40.127676
1151.215022	-2.605800	3.201900	-8.343400	40.682439	40.130091
1152.211561	-2.596800	3.200300	-8.310200	40.677649	40.138402
1153.215316	-2.601200	3.202000	-8.328800	40.679897	40.127913
1154.213769	-2.606100	3.201000	-8.341500	40.671808	40.130010
1155.210130	-2.590400	3.200300	-8.289700	40.687973	40.141087
1156.211564	-2.613600	3.201100	-8.366500	40.669982	40.124180
1157.210914	-2.593100	3.201800	-8.302200	40.677561	40.129579
1158.212029	-2.587000	3.201700	-8.282300	40.669478	40.117489
1159.211122	-2.590300	3.201400	-8.292300	40.665364	40.143580
1160.211827	-2.588100	3.200800	-8.283700	40.684327	40.109416
1161.215851	-2.594400	3.201900	-8.306500	40.672645	40.129028
1162.210099	-2.600500	3.201200	-8.324100	40.647384	40.133236
1163.210724	-2.606100	3.201400	-8.343000	40.665620	40.130007
1164.212914	-2.607200	3.200400	-8.343800	40.664601	40.134447
1165.212415	-2.596700	3.200800	-8.311100	40.668827	40.134307
1166.210918	-2.569600	3.201600	-8.226100	40.682625	40.133917
1167.213519	-2.616000	3.201400	-8.374800	40.666372	40.128212
1168.213384	-2.602200	3.200900	-8.329400	40.658230	40.141539
1169.209222	-2.582000	3.200400	-8.262900	40.673687	40.139897
1170.211744	-2.591600	3.200600	-8.294100	40.676947	40.129693
1171.210371	-2.593800	3.201800	-8.304200	40.657455	40.134940
1172.212751	-2.614100	3.202300	-8.370800	40.663738	40.132492
1173.211714	-2.597700	3.201500	-8.316500	40.667157	40.132273
1174.210353	-2.617100	3.200700	-8.375900	40.661124	40.133152
1175.210929	-2.598100	3.201500	-8.317500	40.661356	40.126105
1176.211476	-2.604100	3.201100	-8.336100	40.683268	40.114544
1177.213762	-2.608600	3.200700	-8.348600	40.663081	40.130379
1178.212275	-2.618200	3.200400	-8.378900	40.669120	40.124773
1179.211455	-2.603100	3.200300	-8.330500	40.672757	40.128049
1180.212406	-2.596200	3.201100	-8.310400	40.674536	40.124369
1181.210627	-2.601100	3.201200	-8.326300	40.665779	40.147635
1182.214055	-2.594200	3.200600	-8.302600	40.677353	40.158850
1183.214987	-2.589000	3.201000	-8.287400	40.654090	40.137397
1184.213822	-2.571400	3.202000	-8.233700	40.642878	40.140738
1185.215714	-2.586500	3.201700	-8.281100	40.662258	40.146296
1186.213302	-2.611700	3.199300	-8.355100	40.673793	40.124718
1187.214777	-2.578700	3.200200	-8.252300	40.668780	40.136080
1188.214293	-2.582100	3.201400	-8.265800	40.657124	40.126967
1189.210200	-2.607500	3.200500	-8.344700	40.677437	40.146560
1190.210987	-2.585600	3.200700	-8.275300	40.671855	40.134425
1191.212888	-2.577200	3.200600	-8.248100	40.674327	40.132895
1192.209016	-2.590700	3.201500	-8.293700	40.670326	40.143085
1193.212633	-2.591800	3.200800	-8.295500	40.661793	40.119627
1194.212175	-2.600500	3.200500	-8.322500	40.662877	40.131266
1195.211127	-2.595400	3.202700	-8.312100	40.666958	40.130254
1196.211176	-2.611300	3.201100	-8.358900	40.668313	40.126151
1197.213006	-2.597300	3.201300	-8.314300	40.661189	40.129578
1198.215137	-2.608600	3.201800	-8.352100	40.663756	40.145247
1199.212262	-2.618900	3.200100	-8.380300	40.653112	40.148793
1200.211885	-2.585900	3.200100	-8.274700	40.662617	40.147020
1201.211003	-2.598900	3.200200	-8.316800	40.666539	40.139661
1202.216445	-2.618100	3.200700	-8.379700	40.674476	40.137775
1203.215810	-2.635900	3.199600	-8.433300	40.658925	40.132044
1204.212340	-2.602000	3.199900	-8.325900	40.669601	40.137993
1205.211589	-2.584400	3.201100	-8.273000	40.661227	40.123792
1206.209687	-2.603000	3.199700	-8.328700	40.654050	40.135901
1207.211518	-2.594700	3.201400	-8.305800	40.663157	40.123904
1208.209689	-2.573000	3.200700	-8.234700	40.663514	40.132632
1209.211793	-2.578300	3.200200	-8.250600	40.662548	40.124751
1210.211221	-2.600500	3.200800	-8.323500	40.659360	40.134299
1211.210687	-2.587000	3.201000	-8.280700	40.654055	40.130447
1212.212435	-2.581700	3.200600	-8.262200	40.658361	40.131115
1213.213247	-2.624700	3.200100	-8.399000	40.662402	40.127515
1214.213077	-2.613100	3.200200	-8.362200	40.676623	40.119178
1215.209864	-2.599500	3.200700	-8.320100	40.657659	40.118039
1216.210673	-2.603600	3.201100	-8.333900	40.645951	40.118700
1217.211726	-2.596600	3.200900	-8.310900	40.660291	40.122128
1218.209915	-2.573800	3.200200	-8.236400	40.653160	40.117906
1219.216666	-2.591300	3.200200	-8.292500	40.666276	40.126660
1220.214148	-2.596000	3.200300	-8.307800	40.648020	40.126958
1221.212220	-2.605000	3.200900	-8.337900	40.674702	40.112161
1222.216781	-2.587500	3.198600	-8.276800	40.668769	40.156814
1223.211317	-2.593000	3.201000	-8.299900	40.659449	40.136935
1224.211694	-2.587000	3.200100	-8.278400	40.650949	40.138623
1225.212072	-2.596500	3.199300	-8.306900	40.652629	40.124290
1226.208335	-2.598500	3.199900	-8.314500	40.664469	40.141957
1227.210380	-2.612500	3.199300	-8.357800	40.659290	40.130225
1228.209872	-2.630100	3.199700	-8.415300	40.667676	40.141163
1229.211896	-2.573000	3.200700	-8.235200	40.649004	40.131217
1230.212481	-2.598700	3.199200	-8.313100	40.662570	40.125864
1231.212891	-2.587300	3.200100	-8.279300	40.661624	40.131832
1232.213578	-2.599400	3.200000	-8.317900	40.661147	40.116434
1233.215711	-2.596100	3.199000	-8.304900	40.652826	40.137953
1234.213306	-2.587200	3.198500	-8.274900	40.656219	40.127517
1235.211922	-2.604600	3.199300	-8.332700	40.667953	40.122879
1236.215266	-2.597500	3.200500	-8.313200	40.652799	40.131739
1237.211037	-2.587900	3.199000	-8.278000	40.650378	40.135868
1238.213218	-2.613800	3.197600	-8.357700	40.657872	40.128443
1239.211301	-2.599000	3.199700	-8.315100	40.649002	40.148321
1240.211421	-2.585000	3.198900	-8.268900	40.660068	40.140830
1241.215282	-2.611000	3.198900	-8.351900	40.661510	40.121164
1242.212839	-2.605000	3.199900	-8.335100	40.648069	40.132466
1243.210255	-2.605900	3.199400	-8.337100	40.653103	40.119668
1244.214054	-2.606100	3.198900	-8.336300	40.634205	40.119688
1245.215024	-2.596500	3.199100	-8.306200	40.650073	40.118093
1246.214632	-2.594900	3.199500	-8.302000	40.650761	40.115142
1247.213268	-2.620800	3.198700	-8.382500	40.645006	40.137045
1248.213876	-2.613100	3.198900	-8.358900	40.662495	40.112687
1249.213283	-2.600100	3.199000	-8.318000	40.652864	40.119430
1250.211438	-2.586100	3.199700	-8.274300	40.632538	40.132942
1251.209992	-2.580700	3.200000	-8.257800	40.641600	40.109980
1252.210752	-2.618300	3.199000	-8.375900	40.647910	40.125028
1253.212328	-2.592000	3.199500	-8.292000	40.663540	40.133021
1254.213441	-2.597700	3.199800	-8.311700	40.656118	40.128872
1255.216109	-2.628900	3.199000	-8.409600	40.647612	40.139651
1256.212922	-2.620400	3.198100	-8.380000	40.639562	40.134146
1257.212707	-2.595000	3.198900	-8.300900	40.657448	40.127654
1258.210954	-2.622400	3.198700	-8.387700	40.644424	40.125543
1259.212523	-2.603600	3.198700	-8.327700	40.641791	40.124002
1260.212982	-2.626700	3.200000	-8.405000	40.664928	40.120580
1261.214458	-2.584100	3.199000	-8.266200	40.652606	40.137004
1262.213799	-2.608000	3.199900	-8.345300	40.652500	40.113606
1263.213122	-2.583500	3.199100	-8.264400	40.653737	40.131221
1264.212858	-2.593400	3.199300	-8.296200	40.652149	40.131452
1265.212651	-2.603300	3.199000	-8.327600	40.649041	40.142536
1266.211304	-2.603900	3.199000	-8.329300	40.640025	40.133881
1267.209527	-2.587000	3.198900	-8.274800	40.662408	40.130797
1268.210346	-2.602700	3.198700	-8.325300	40.649437	40.145845
1269.211177	-2.567200	3.198800	-8.211300	40.652110	40.149246
1270.213198	-2.611100	3.197900	-8.349700	40.645112	40.130235
1271.213569	-2.605400	3.199200	-8.335000	40.641520	40.115360
1272.216351	-2.586800	3.198700	-8.273900	40.642605	40.119720
1273.216191	-2.604500	3.199400	-8.332400	40.641679	40.109695
1274.212012	-2.593700	3.199300	-8.297500	40.637022	40.114136
1275.213766	-2.595200	3.199800	-8.303700	40.641024	40.137064
1276.213950	-2.594800	3.199400	-8.301400	40.650007	40.124942
1277.215325	-2.604300	3.197600	-8.327200	40.647222	40.124339
1278.214480	-2.598700	3.197900	-8.310100	40.638564	40.140790
1279.210634	-2.587900	3.198800	-8.278100	40.643908	40.118841
1280.212109	-2.610900	3.197300	-8.347600	40.638835	40.122500
1281.210822	-2.635200	3.198200	-8.427400	40.643425	40.116902
1282.213847	-2.641200	3.197800	-8.445900	40.647083	40.119833
1283.212610	-2.596400	3.199100	-8.305800	40.649676	40.129342
1284.213997	-2.591300	3.198100	-8.286700	40.637122	40.122970
1285.212757	-2.612700	3.197500	-8.354000	40.625342	40.132658
1286.209954	-2.588500	3.198000	-8.277700	40.651581	40.133796
1287.209725	-2.585600	3.198400	-8.269700	40.640403	40.124433
1288.215855	-2.606300	3.198700	-8.336700	40.638809	40.120654
1289.212118	-2.627500	3.197600	-8.401700	40.642335	40.126001
1290.216308	-2.602000	3.197500	-8.319600	40.657793	40.128000
1291.215958	-2.604800	3.197400	-8.328400	40.639517	40.125002
1292.215710	-2.618000	3.197700	-8.371300	40.629979	40.126015
1293.211051	-2.590900	3.198300	-8.286100	40.624595	40.124268
1294.212790	-2.617100	3.198000	-8.369300	40.643136	40.132262
1295.210784	-2.606700	3.198200	-8.336300	40.642117	40.127967
1296.211374	-2.592900	3.198300	-8.292700	40.614177	40.124765
1297.211785	-2.585600	3.199700	-8.272800	40.628101	40.114673
1298.210751	-2.622900	3.197800	-8.387000	40.628763	40.110240
1299.215868	-2.570300	3.197100	-8.217400	40.641079	40.131660
1300.210281	-2.607700	3.197600	-8.338200	40.632421	40.118631
1301.211535	-2.606700	3.197400	-8.334000	40.632751	40.121509
1302.211000	-2.578600	3.197600	-8.244800	40.640821	40.107382
1303.212845	-2.589700	3.197800	-8.281100	40.646543	40.122568
1304.213767	-2.589400	3.198000	-8.280700	40.642813	40.132666
1305.215158	-2.590800	3.197700	-8.284200	40.649017	40.103207
1306.213193	-2.587000	3.197400	-8.271200	40.636357	40.121113
1307.214304	-2.598100	3.196900	-8.305300	40.617512	40.127737
1308.210761	-2.584400	3.198100	-8.265000	40.627785	40.133283
1309.210363	-2.582500	3.197100	-8.256000	40.640697	40.125819
1310.213012	-2.603200	3.197400	-8.322900	40.647318	40.137538
1311.211372	-2.615200	3.197800	-8.362400	40.634685	40.109249
1312.209432	-2.590600	3.197300	-8.282800	40.635538	40.115926
1313.212489	-2.599400	3.198400	-8.313700	40.620113	40.117601
1314.211105	-2.583300	3.197700	-8.260700	40.642351	40.114372
1315.211445	-2.587200	3.198400	-8.274100	40.626027	40.111871
1316.212021	-2.603400	3.196700	-8.322100	40.639792	40.129281
1317.211167	-2.593900	3.198000	-8.295000	40.640011	40.114214
1318.213623	-2.610000	3.197600	-8.345400	40.636968	40.124636
1319.214210	-2.621700	3.197000	-8.381000	40.632543	40.137679
1320.213081	-2.585300	3.197700	-8.266600	40.637372	40.130863
1321.211891	-2.587900	3.197500	-8.274400	40.640270	40.116656
1322.213797	-2.575300	3.196300	-8.231000	40.629091	40.118212
1323.214886	-2.583200	3.196700	-8.256900	40.649437	40.118549
1324.210732	-2.599800	3.197400	-8.312100	40.632657	40.123963
1325.211435	-2.576200	3.198000	-8.238700	40.630633	40.125941
1326.211171	-2.622100	3.196500	-8.380900	40.644458	40.122302
1327.211243	-2.610800	3.197200	-8.347000	40.657701	40.139554
1328.209369	-2.600800	3.197200	-8.314600	40.633194	40.133234
1329.211342	-2.623300	3.196500	-8.385100	40.637520	40.138290
1330.212657	-2.594300	3.196100	-8.291400	40.638361	40.131125
1331.212873	-2.597500	3.197300	-8.304800	40.631886	40.134837
1332.211555	-2.586600	3.196700	-8.268500	40.652801	40.130285
1333.216768	-2.622100	3.197100	-8.382700	40.638620	40.140119
1334.214548	-2.618900	3.196400	-8.370800	40.622739	40.133330
1335.212833	-2.599600	3.197100	-8.310700	40.637205	40.150349
1336.214951	-2.624200	3.195800	-8.386000	40.634461	40.134502
1337.212900	-2.606500	3.196000	-8.330200	40.635076	40.136937
1338.214541	-2.607400	3.196100	-8.332700	40.640699	40.124001
1339.210958	-2.605700	3.197300	-8.330500	40.637419	40.144740
1340.212038	-2.616600	3.195500	-8.361000	40.640164	40.140208
1341.210308	-2.628600	3.196200	-8.401300	40.635065	40.127827
1342.213280	-2.601100	3.195300	-8.310700	40.639438	40.122740
1343.210208	-2.609500	3.195500	-8.338400	40.620355	40.123666
1344.215405	-2.582500	3.196400	-8.254400	40.638771	40.121708
1345.213767	-2.585000	3.196800	-8.263100	40.614562	40.122966
1346.212906	-2.598100	3.197000	-8.305400	40.631350	40.135029
1347.211391	-2.569200	3.197300	-8.213800	40.629618	40.122378
1348.212890	-2.605800	3.196000	-8.327800	40.627476	40.132609
1349.213134	-2.599300	3.196200	-8.307500	40.633721	40.109741
1350.213215	-2.589300	3.196500	-8.276500	40.645620	40.127469
1351.216838	-2.621800	3.197100	-8.381400	40.625314	40.126444
1352.213353	-2.584700	3.197100	-8.263100	40.638273	40.119026
1353.214425	-2.607200	3.196100	-8.332500	40.635925	40.118133
1354.213198	-2.601100	3.196500	-8.313900	40.622419	40.116268
1355.212994	-2.594400	3.197000	-8.294100	40.620090	40.114303
1356.211369	-2.595800	3.196400	-8.297100	40.634908	40.113113
1357.211606	-2.628900	3.196200	-8.402400	40.631390	40.135797
1358.212214	-2.605200	3.196600	-8.327400	40.623679	40.118984
1359.212983	-2.612900	3.195900	-8.349800	40.632715	40.111646
1360.212344	-2.598500	3.197000	-8.307300	40.632556	40.124226
1361.210434	-2.586200	3.197700	-8.269800	40.642994	40.126297
1362.210474	-2.599000	3.196900	-8.308900	40.632412	40.117894
1363.212936	-2.579500	3.196900	-8.246200	40.630164	40.112005
1364.211505	-2.600600	3.195800	-8.311000	40.632261	40.123202
1365.214788	-2.576300	3.195400	-8.232400	40.615514	40.120642
1366.210225	-2.592100	3.196400	-8.285400	40.630403	40.112973
1367.214139	-2.588600	3.195800	-8.272100	40.620938	40.112603
1368.214604	-2.590600	3.195800	-8.278800	40.640961	40.123535
1369.216063	-2.610200	3.195100	-8.339900	40.632535	40.106007
1370.213248	-2.585300	3.196000	-8.262000	40.631801	40.105273
1371.216321	-2.594600	3.195300	-8.289600	40.622125	40.122889
1372.211980	-2.596900	3.194600	-8.295500	40.623005	40.124497
1373.212014	-2.605700	3.195500	-8.326000	40.611330	40.131379
1374.211761	-2.601300	3.195900	-8.313300	40.632425	40.112084
1375.210529	-2.616100	3.196400	-8.361700	40.630679	40.112885
1376.212016	-2.613300	3.194900	-8.348400	40.603361	40.105573
1377.212607	-2.591300	3.196200	-8.281700	40.630185	40.103292
1378.212246	-2.619300	3.195600	-8.369700	40.623821	40.097290
1379.210576	-2.576100	3.195700	-8.231800	40.620277	40.119220
1380.213474	-2.595700	3.196300	-8.296700	40.619569	40.120696
1381.214298	-2.589600	3.195100	-8.273800	40.623354	40.113200
1382.211063	-2.613700	3.196700	-8.355200	40.629069	40.123649
1383.210382	-2.626300	3.194400	-8.389100	40.629943	40.134713
1384.215257	-2.606500	3.195700	-8.328900	40.636300	40.125424
1385.216146	-2.582600	3.195100	-8.251500	40.620730	40.122221
1386.215397	-2.600500	3.195300	-8.309300	40.629587	40.132174
1387.213511	-2.577600	3.193600	-8.231500	40.610584	40.114255
1388.210926	-2.599400	3.195800	-8.306800	40.633987	40.114739
1389.210532	-2.605700	3.195500	-8.326100	40.639564	40.103940
1390.210841	-2.601400	3.194200	-8.308900	40.626494	40.110882
1391.210787	-2.614100	3.194900	-8.351300	40.621647	40.112948
1392.212997	-2.571400	3.196100	-8.218200	40.624325	40.118539
1393.214839	-2.615600	3.194200	-8.354500	40.615218	40.135632
1394.212426	-2.584200	3.194300	-8.254500	40.625094	40.114212
1395.212054	-2.595100	3.194500	-8.289600	40.623395	40.114696
1396.216374	-2.602500	3.194900	-8.314500	40.632152	40.127097
1397.211839	-2.607700	3.195100	-8.331200	40.623884	40.115550
1398.215715	-2.558700	3.195700	-8.176400	40.617608	40.096170
1399.216808	-2.595500	3.194600	-8.291300	40.609631	40.115849
1400.213168	-2.606800	3.195200	-8.328900	40.611934	40.110874
1401.214545	-2.604000	3.195100	-8.319900	40.610883	40.108731
1402.210672	-2.562200	3.194200	-8.184200	40.615249	40.116010
1403.210753	-2.603000	3.194100	-8.313700	40.618980	40.119379
1404.210526	-2.606900	3.194000	-8.326400	40.634902	40.115291
1405.210694	-2.579900	3.194400	-8.240500	40.630220	40.124436
1406.210543	-2.609700	3.194500	-8.336800	40.631649	40.112399
1407.211137	-2.605300	3.194400	-8.322100	40.610656	40.112507
1408.215206	-2.613700	3.195300	-8.351400	40.635189	40.116305
1409.210254	-2.609000	3.194500	-8.334100	40.624515	40.101988
1410.211939	-2.590400	3.193700	-8.272500	40.626149	40.112721
1411.212870	-2.585800	3.194600	-8.260500	40.620012	40.127690
1412.212776	-2.600300	3.194200	-8.306000	40.623770	40.105245
1413.212826	-2.601300	3.194800	-8.310500	40.612691	40.099985
1414.210838	-2.603200	3.194000	-8.314100	40.629520	40.104446
1415.210435	-2.605600	3.195000	-8.324600	40.630890	40.111276
1416.211823	-2.584000	3.193900	-8.252500	40.620724	40.123307
1417.212595	-2.591400	3.194700	-8.278400	40.630937	40.116418
1418.213226	-2.578700	3.194600	-8.237500	40.625963	40.101617
1419.211642	-2.625700	3.193600	-8.385400	40.617194	40.100122
1420.211086	-2.602500	3.195400	-8.315200	40.621533	40.103008
1421.210678	-2.623100	3.193300	-8.375700	40.611329	40.130650
1422.212986	-2.594600	3.194100	-8.287300	40.603862	40.104618
1423.214375	-2.613800	3.193900	-8.347700	40.608010	40.118231
1424.214089	-2.603500	3.193100	-8.312700	40.617073	40.124386
1425.210198	-2.589800	3.194300	-8.272200	40.626288	40.129237
1426.211925	-2.594500	3.194600	-8.287800	40.632467	40.139786
1427.210852	-2.609900	3.194100	-8.336100	40.631959	40.114166
1428.210194	-2.600300	3.194800	-8.307400	40.621277	40.122040
1429.213295	-2.581800	3.194800	-8.248200	40.630988	40.123749
1430.214984	-2.591600	3.193200	-8.275300	40.611210	40.129076
1431.214557	-2.593400	3.194300	-8.283800	40.612780	40.115360
1432.214834	-2.583500	3.194000	-8.251700	40.613443	40.114204
1433.214180	-2.597600	3.193800	-8.296200	40.619317	40.112801
1434.214893	-2.601600	3.193800	-8.308600	40.608781	40.094254
1435.214508	-2.603800	3.193500	-8.314600	40.605533	40.105563
1436.212642	-2.620100	3.192600	-8.364700	40.610952	40.124086
1437.211811	-2.587900	3.194100	-8.265400	40.620332	40.119275
1438.211781	-2.573900	3.193700	-8.220000	40.633648	40.130778
1439.209811	-2.590600	3.192500	-8.270000	40.619718	40.130672
1440.210605	-2.574200	3.193600	-8.220000	40.604353	40.109478
1441.213962	-2.604700	3.192500	-8.315100	40.624562	40.122052
1442.213772	-2.610700	3.193900	-8.337700	40.614138	40.136736
1443.213124	-2.589800	3.194700	-8.273200	40.619114	40.124972
1444.210366	-2.579200	3.193700	-8.237300	40.621945	40.115794
1445.210539	-2.623400	3.192900	-8.376000	40.619736	40.113220
1446.214474	-2.593000	3.192800	-8.278700	40.607123	40.121711
1447.212997	-2.578900	3.193800	-8.236100	40.623330	40.115724
1448.215174	-2.609400	3.194100	-8.334500	40.617271	40.117670
1449.214948	-2.569600	3.193600	-8.205900	40.608845	40.121614
1450.214096	-2.592200	3.194300	-8.280200	40.621784	40.103986
1451.212555	-2.592000	3.193000	-8.275900	40.622426	40.119915
1452.211946	-2.553600	3.193000	-8.153000	40.630002	40.117667
1453.210362	-2.609900	3.192600	-8.332200	40.614470	40.136703
1454.211766	-2.571000	3.192600	-8.207700	40.620226	40.125721
1455.212667	-2.600700	3.193400	-8.305000	40.634256	40.128838
1456.212012	-2.607500	3.191800	-8.322100	40.614446	40.135224
1457.213819	-2.595100	3.192800	-8.284900	40.607739	40.132518
1458.215084	-2.565300	3.194000	-8.192700	40.628702	40.120006
1459.211329	-2.602700	3.191900	-8.307200	40.617213	40.129985
1460.212818	-2.612400	3.192900	-8.341000	40.627825	40.139146
1461.210433	-2.607200	3.193500	-8.325600	40.608259	40.126123
1462.209965	-2.575100	3.193200	-8.222500	40.617011	40.120684
1463.214790	-2.608000	3.192700	-8.326700	40.624149	40.111448
1464.212930	-2.603000	3.192900	-8.311100	40.623046	40.113620
1465.214565	-2.608900	3.193300	-8.331500	40.613091	40.119311
1466.212646	-2.595000	3.193600	-8.287300	40.619244	40.100354
1467.215926	-2.604700	3.192400	-8.314800	40.616064	40.124468
1468.216555	-2.606500	3.192700	-8.321400	40.614107	40.129789
1469.212652	-2.594700	3.192700	-8.283300	40.616885	40.130021
1470.210545	-2.564800	3.192600	-8.188100	40.615028	40.116881
1471.210432	-2.574100	3.193800	-8.221200	40.618740	40.114407
1472.212529	-2.623800	3.191800	-8.374600	40.616757	40.121522
1473.210739	-2.599900	3.191700	-8.297600	40.618781	40.112265
1474.213022	-2.606100	3.191800	-8.317600	40.630432	40.106815
1475.210621	-2.606400	3.192700	-8.320800	40.623540	40.115206
1476.212723	-2.613900	3.191100	-8.341300	40.620313	40.110158
1477.210487	-2.603000	3.191300	-8.306600	40.612562	40.108227
1478.212236	-2.606200	3.191700	-8.317900	40.606724	40.109665
1479.214352	-2.595200	3.192800	-8.285800	40.625483	40.118606
1480.212130	-2.611900	3.192100	-8.337000	40.616641	40.123953
1481.213774	-2.592200	3.191000	-8.271100	40.613666	40.123525
1482.214400	-2.634900	3.191900	-8.409400	40.624865	40.099061
1483.212354	-2.614200	3.192100	-8.344300	40.623319	40.114621
1484.212707	-2.593800	3.190700	-8.275700	40.605328	40.134474
1485.217319	-2.601900	3.191400	-8.303400	40.604827	40.119050
1486.213034	-2.568900	3.192100	-8.200400	40.623745	40.115047
1487.213249	-2.622500	3.191400	-8.368800	40.603718	40.112118
1488.214488	-2.596000	3.192200	-8.286800	40.633028	40.109048
1489.212491	-2.593000	3.190900	-8.273700	40.612433	40.105550
1490.211386	-2.596900	3.191200	-8.286300	40.607392	40.114701
1491.213159	-2.581200	3.192000	-8.238900	40.606970	40.097901
1492.211475	-2.591100	3.191700	-8.269800	40.618078	40.105374
1493.212691	-2.630900	3.190900	-8.394300	40.621136	40.108433
1494.212751	-2.625900	3.190300	-8.377500	40.613437	40.105099
1495.213655	-2.591200	3.191900	-8.270300	40.614101	40.103579
1496.213623	-2.601800	3.192300	-8.305200	40.602711	40.107471
1497.210682	-2.614600	3.190100	-8.340500	40.604757	40.117888
1498.212988	-2.602700	3.191500	-8.306100	40.619283	40.118954
1499.212955	-2.613800	3.191100	-8.340500	40.613186	40.109580
1500.212850	-2.611300	3.189900	-8.329200	40.615780	40.099072
1501.217253	-2.605200	3.192000	-8.315500	40.621669	40.090405
1502.213972	-2.582000	3.192000	-8.241400	40.619633	40.113117
1503.214829	-2.569900	3.190100	-8.197700	40.623603	40.114177
1504.213600	-2.604100	3.192200	-8.312700	40.628380	40.109129
1505.211229	-2.577500	3.191700	-8.226100	40.604536	40.112573
1506.212309	-2.610000	3.191000	-8.328100	40.607831	40.099855
1507.213726	-2.579000	3.190800	-8.228400	40.616763	40.123712
1508.211910	-2.588700	3.189100	-8.255500	40.604018	40.117877
1509.214910	-2.631700	3.190100	-8.394900	40.614710	40.104553
1510.208961	-2.608500	3.190700	-8.322200	40.613149	40.098624
1511.214150	-2.606600	3.191600	-8.319200	40.612352	40.110201
1512.213962	-2.602900	3.191500	-8.306500	40.614482	40.116335
1513.212033	-2.607800	3.191100	-8.321500	40.602903	40.119673
1514.214869	-2.580300	3.189800	-8.230600	40.613216	40.121619
1515.215950	-2.615100	3.190600	-8.343400	40.619859	40.119530
1516.212491	-2.608500	3.191400	-8.324100	40.598894	40.107656
1517.216563	-2.615500	3.190500	-8.344100	40.597755	40.118527
1518.216378	-2.591000	3.190300	-8.266300	40.617390	40.107962
1519.216111	-2.576100	3.190700	-8.219200	40.600385	40.106600
1520.210632	-2.600700	3.190800	-8.298200	40.612723	40.126221
1521.215102	-2.614100	3.190300	-8.339900	40.607877	40.115914
1522.216225	-2.573800	3.190200	-8.210200	40.603717	40.110661
1523.213970	-2.601000	3.189600	-8.295800	40.611583	40.113071
1524.213898	-2.588000	3.190300	-8.256000	40.599361	40.101936
1525.212273	-2.604000	3.190500	-8.307700	40.617546	40.104114
1526.211833	-2.604600	3.189300	-8.306600	40.612204	40.106049
1527.210348	-2.604500	3.190200	-8.308500	40.607032	40.100875
1528.211926	-2.585800	3.191300	-8.252100	40.625991	40.106012
1529.212399	-2.612900	3.189100	-8.332500	40.626924	40.094571
1530.212927	-2.612100	3.190700	-8.333700	40.617771	40.097788
1531.211349	-2.597700	3.190600	-8.288100	40.608850	40.107061
1532.212677	-2.607600	3.190300	-8.319100	40.620096	40.097566
1533.213129	-2.617400	3.189300	-8.347400	40.614923	40.109133
1534.213755	-2.569200	3.191100	-8.198400	40.608464	40.105947
1535.214204	-2.610000	3.190500	-8.326800	40.616620	40.119566
1536.212093	-2.601400	3.189800	-8.297800	40.603729	40.121591
1537.210562	-2.599700	3.189300	-8.290800	40.612044	40.115715
1538.210433	-2.579100	3.190000	-8.226700	40.608632	40.119217
1539.214282	-2.582100	3.189400	-8.234900	40.618813	40.133406
1540.215339	-2.614000	3.190200	-8.338700	40.609428	40.116738
1541.212866	-2.627800	3.190200	-8.382800	40.609824	40.120045
1542.215496	-2.602800	3.189600	-8.301700	40.603681	40.109897
1543.213297	-2.607900	3.189600	-8.318000	40.604919	40.120599
1544.213022	-2.621700	3.189200	-8.360800	40.608616	40.106827
1545.211993	-2.596800	3.189000	-8.281000	40.617700	40.110091
1546.212137	-2.600800	3.189700	-8.295600	40.616134	40.125630
1547.214701	-2.567300	3.188800	-8.186100	40.609664	40.123162
1548.212803	-2.599700	3.189000	-8.290200	40.600822	40.115772
1549.216382	-2.598800	3.188900	-8.286800	40.612543	40.126041
1550.213131	-2.599800	3.189000	-8.290300	40.617188	40.107396
1551.213341	-2.592200	3.189400	-8.267600	40.612195	40.100217
1552.211621	-2.609100	3.189400	-8.321200	40.619518	40.116278
1553.212223	-2.600100	3.188400	-8.289900	40.602472	40.113055
1554.212734	-2.590200	3.189700	-8.261500	40.610650	40.113957
1555.213709	-2.607500	3.188900	-8.314400	40.607649	40.106588
1556.214016	-2.602000	3.188500	-8.296300	40.599946	40.109436
1557.212588	-2.620400	3.187900	-8.353600	40.613881	40.095716
1558.212772	-2.625700	3.188500	-8.371700	40.609426	40.093079
1559.211845	-2.612200	3.189000	-8.329400	40.614255	40.105917
1560.214860	-2.596000	3.188600	-8.276800	40.614223	40.103702
1561.213610	-2.617700	3.187400	-8.343800	40.597198	40.103048
1562.213107	-2.583700	3.188900	-8.238600	40.595737	40.123059
1563.210748	-2.592100	3.186800	-8.260300	40.613764	40.102879
1564.212440	-2.615200	3.187700	-8.335600	40.604869	40.112905
1565.210975	-2.579600	3.188300	-8.224300	40.609852	40.106971
1566.212210	-2.600500	3.188100	-8.290100	40.599997	40.108395
1567.210355	-2.595900	3.188600	-8.276800	40.617096	40.104392
1568.215383	-2.594900	3.188100	-8.272600	40.607679	40.100430
1569.215507	-2.607900	3.187800	-8.312800	40.609387	40.104687
1570.213175	-2.588400	3.187700	-8.250700	40.612630	40.121033
1571.213135	-2.618500	3.187100	-8.345100	40.598721	40.098384
1572.212219	-2.571800	3.188800	-8.200700	40.618746	40.110410
1573.211766	-2.567600	3.188800	-8.187000	40.607251	40.116380
1574.216000	-2.592400	3.187000	-8.261800	40.618867	40.125817
1575.212577	-2.601800	3.188000	-8.294000	40.611016	40.117963
1576.213022	-2.577400	3.188400	-8.217400	40.631447	40.118020
1577.213646	-2.586000	3.187000	-8.241000	40.613541	40.124492
1578.215004	-2.586300	3.187000	-8.242600	40.599321	40.114998
1579.215357	-2.591200	3.188400	-8.261400	40.605653	40.105683
1580.214689	-2.583000	3.187600	-8.233500	40.612929	40.112234
1581.211773	-2.575900	3.187400	-8.209900	40.603618	40.124028
1582.210279	-2.604800	3.186900	-8.300900	40.600386	40.102597
1583.211385	-2.592100	3.187800	-8.262900	40.614754	40.111147
1584.214112	-2.584200	3.187900	-8.237600	40.611912	40.092654
1585.212584	-2.627100	3.187400	-8.373200	40.607957	40.101437
1586.211079	-2.611600	3.188100	-8.326100	40.604124	40.099058
1587.210249	-2.611400	3.187400	-8.323200	40.611732	40.095750
1588.209594	-2.600200	3.187800	-8.288800	40.618006	40.102027
1589.210978	-2.589600	3.187300	-8.253700	40.622736	40.094020
1590.216895	-2.595200	3.186800	-8.270200	40.616340	40.106548
1591.213898	-2.606600	3.186100	-8.304700	40.603992	40.103293
1592.213717	-2.580600	3.188100	-8.226800	40.607440	40.104923
1593.214664	-2.583000	3.187100	-8.231800	40.610809	40.086820
1594.211174	-2.594500	3.187300	-8.268900	40.600823	40.091752
1595.212818	-2.587500	3.186200	-8.244100	40.613889	40.081530
1596.215121	-2.583200	3.186500	-8.231500	40.597443	40.084004
1597.211597	-2.589100	3.186100	-8.248800	40.591533	40.089373
1598.216483	-2.595100	3.185600	-8.266700	40.612128	40.083044
1599.214029	-2.586500	3.187400	-8.244300	40.605969	40.080158
1600.212870	-2.622000	3.185600	-8.352500	40.601177	40.085918
1601.214459	-2.609100	3.185800	-8.311900	40.595350	40.087369
1602.214953	-2.600000	3.186700	-8.284500	40.600027	40.082221
1603.215775	-2.584600	3.187100	-8.237200	40.612882	40.109639
1604.214793	-2.611400	3.185800	-8.319300	40.601989	40.091098
1605.217142	-2.627800	3.186600	-8.373300	40.604941	40.091869
1606.214357	-2.604900	3.187100	-8.301700	40.591554	40.081388
1607.211669	-2.594600	3.186800	-8.267700	40.600486	40.093599
1608.210100	-2.609300	3.186900	-8.315200	40.616895	40.092908
1609.210586	-2.593900	3.185500	-8.262300	40.596885	40.079442
1610.211647	-2.597400	3.186300	-8.275600	40.591966	40.090534
1611.211470	-2.612800	3.186100	-8.324500	40.590690	40.075792
1612.210792	-2.591600	3.186400	-8.257500	40.601900	40.091737
1613.212835	-2.604700	3.184900	-8.295600	40.597007	40.083567
1614.213115	-2.600900	3.186100	-8.286500	40.580424	40.101554
1615.217955	-2.598400	3.186800	-8.280100	40.600097	40.091753
1616.212543	-2.614300	3.185500	-8.327800	40.599100	40.087117
1617.212202	-2.608400	3.186900	-8.312400	40.602596	40.099713
1618.210048	-2.613300	3.185700	-8.324800	40.598178	40.092745
1619.212882	-2.609600	3.186300	-8.314900	40.600234	40.075513
1620.214790	-2.614200	3.186700	-8.329800	40.603625	40.095283
1621.214468	-2.593900	3.185700	-8.263300	40.601336	40.087534
1622.215154	-2.609600	3.185900	-8.313300	40.585139	40.097535
1623.214000	-2.605600	3.185700	-8.300900	40.597430	40.102915
1624.212957	-2.646400	3.185600	-8.430100	40.602908	40.085103
1625.212356	-2.619500	3.185800	-8.344700	40.607553	40.078467
1626.212785	-2.599500	3.184300	-8.277100	40.600847	40.094323
1627.215366	-2.617100	3.185200	-8.335700	40.582883	40.089819
1628.211488	-2.597200	3.185700	-8.273600	40.617366	40.082825
1629.212175	-2.591400	3.184900	-8.252600	40.606916	40.085109
1630.210894	-2.591700	3.186100	-8.257000	40.603352	40.082635
1631.212280	-2.607300	3.184900	-8.303900	40.599265	40.087282
1632.211493	-2.607000	3.185300	-8.303900	40.601106	40.082572
1633.212249	-2.604100	3.185200	-8.293900	40.595564	40.091951
1634.215520	-2.594800	3.184700	-8.263300	40.601359	40.091560
1635.216366	-2.601600	3.184200	-8.283500	40.630580	40.088401
1636.213677	-2.586200	3.184100	-8.234800	40.615152	40.083886
1637.211119	-2.587600	3.185700	-8.243100	40.603442	40.095464
1638.211171	-2.606400	3.183900	-8.298200	40.604086	40.071723
1639.212918	-2.591200	3.184300	-8.251000	40.596884	40.096546
1640.210591	-2.594000	3.185700	-8.263100	40.607118	40.083491
1641.214797	-2.623100	3.184600	-8.352900	40.597184	40.071370
1642.212717	-2.585300	3.184900	-8.233700	40.606253	40.082626
1643.213286	-2.614100	3.185100	-8.326000	40.619783	40.076872
1644.215044	-2.612100	3.184600	-8.318000	40.594390	40.087137
1645.212367	-2.576200	3.185100	-8.205300	40.606360	40.069630
1646.213918	-2.597200	3.185800	-8.274100	40.606012	40.096215
1647.212974	-2.620700	3.184200	-8.344600	40.598678	40.092882
1648.210433	-2.612000	3.183800	-8.315800	40.614032	40.094048
1649.213677	-2.608000	3.184200	-8.304300	40.614649	40.077195
1650.211582	-2.609900	3.183700	-8.309000	40.619300	40.093858
1651.211773	-2.580600	3.184700	-8.218100	40.602523	40.096364
1652.211822	-2.626100	3.184300	-8.361700	40.614576	40.076030
1653.217501	-2.592300	3.183300	-8.251800	40.601068	40.086537
1654.212777	-2.592000	3.184400	-8.253400	40.617914	40.077186
1655.217455	-2.579900	3.183400	-8.212400	40.602118	40.086496
1656.212266	-2.612800	3.183100	-8.316800	40.599223	40.082509
1657.212284	-2.618800	3.183300	-8.335700	40.591700	40.091360
1658.212763	-2.632900	3.183800	-8.382200	40.616544	40.087826
1659.213066	-2.593200	3.183600	-8.255500	40.594421	40.086803
1660.213861	-2.620400	3.183700	-8.342600	40.606944	40.102242
1661.214224	-2.595900	3.183300	-8.263000	40.601297	40.096958
1662.215934	-2.627200	3.182200	-8.360400	40.603370	40.087748
1663.212994	-2.598200	3.183600	-8.271200	40.602094	40.109401
1664.210957	-2.595400	3.183700	-8.262900	40.617005	40.103573
1665.212081	-2.569100	3.184000	-8.179300	40.617438	40.104734
1666.213181	-2.611800	3.182900	-8.312900	40.614865	40.085054
1667.211693	-2.601600	3.182600	-8.279700	40.615693	40.089158
1668.211535	-2.614800	3.182900	-8.322200	40.618857	40.074125
1669.212225	-2.627000	3.182000	-8.358800	40.608713	40.089818
1670.213902	-2.600200	3.182700	-8.275300	40.613964	40.091796
1671.214837	-2.642200	3.182200	-8.407200	40.618894	40.089449
1672.213415	-2.594800	3.183900	-8.261200	40.614550	40.088743
1673.213693	-2.614800	3.183300	-8.322800	40.613807	40.077445
1674.213454	-2.632300	3.183400	-8.379100	40.602144	40.084703
1675.212779	-2.600400	3.182500	-8.275300	40.609911	40.100116
1676.214775	-2.565600	3.183000	-8.165900	40.614889	40.090173
1677.213545	-2.609900	3.181900	-8.304400	40.606990	40.088095
1678.213534	-2.597000	3.181600	-8.262000	40.620267	40.076264
1679.211778	-2.599800	3.181900	-8.271700	40.605394	40.113066
1680.214818	-2.581800	3.182900	-8.217000	40.607186	40.090111
1681.215086	-2.593900	3.182700	-8.255300	40.620484	40.095407
1682.211699	-2.597700	3.182100	-8.266200	40.609718	40.084637
1683.211792	-2.604500	3.182600	-8.288600	40.623727	40.089189
1684.212040	-2.602900	3.181700	-8.281300	40.621434	40.084711
1685.212925	-2.593100	3.181900	-8.251000	40.622499	40.084320
1686.211278	-2.607800	3.181800	-8.297400	40.639408	40.089226
1687.212046	-2.588100	3.182300	-8.236200	40.633899	40.080803
1688.211844	-2.607900	3.181200	-8.295700	40.626934	40.100404
1689.211676	-2.594100	3.182000	-8.254100	40.618398	40.083130
1690.211739	-2.586500	3.182300	-8.230800	40.629128	40.071299
1691.213727	-2.603700	3.181200	-8.282000	40.609499	40.078594
1692.211670	-2.611800	3.181200	-8.308400	40.628032	40.080029
1693.213277	-2.585500	3.181000	-8.224500	40.625090	40.067987
1694.212471	-2.621500	3.180400	-8.337400	40.620715	40.089087
1695.210521	-2.609300	3.181700	-8.301700	40.616038	40.079312
1696.212987	-2.618500	3.182400	-8.333000	40.624422	40.081149
1697.217690	-2.602700	3.180800	-8.278400	40.614489	40.077035
1698.212360	-2.607500	3.182200	-8.297200	40.628572	40.080933
1699.215282	-2.605400	3.181000	-8.287400	40.616049	40.090971
1700.216356	-2.598600	3.181000	-8.265400	40.628335	40.081424
1701.215147	-2.612500	3.180900	-8.309800	40.629816	40.090549
1702.212122	-2.606200	3.181000	-8.290100	40.631319	40.082590
1703.211945	-2.612200	3.180300	-8.307200	40.616657	40.085755
1704.213454	-2.609600	3.181700	-8.302600	40.618909	40.073450
1705.211830	-2.595300	3.181200	-8.255800	40.634553	40.082185
1706.212817	-2.593000	3.181000	-8.247800	40.626829	40.091200
1707.216815	-2.606300	3.180200	-8.288700	40.628358	40.087998
1708.213543	-2.588700	3.180700	-8.233600	40.639262	40.073066
1709.212507	-2.585400	3.181100	-8.223800	40.627616	40.082524
1710.212488	-2.596100	3.180200	-8.255400	40.628423	40.089155
1711.210697	-2.604000	3.179700	-8.279700	40.619449	40.076902
1712.211960	-2.595100	3.180400	-8.252900	40.637218	40.059010
1713.212632	-2.613800	3.180700	-8.313500	40.640746	40.089109
1714.211528	-2.577300	3.180400	-8.196600	40.635179	40.076260
1715.215507	-2.608600	3.181200	-8.298200	40.632917	40.094743
1716.215239	-2.592300	3.180500	-8.244500	40.642524	40.071234
1717.214562	-2.614700	3.180100	-8.314500	40.623159	40.070422
1718.213972	-2.601900	3.181200	-8.277300	40.630346	40.057231
1719.214249	-2.600400	3.181000	-8.271800	40.627488	40.080577
1720.216277	-2.576000	3.180400	-8.192100	40.633120	40.075292
1721.213593	-2.626700	3.180100	-8.352700	40.618274	40.077909
1722.213630	-2.609100	3.179500	-8.295200	40.618922	40.092389
1723.209623	-2.591700	3.179200	-8.239000	40.633675	40.093318
1724.212023	-2.613400	3.178500	-8.306200	40.624417	40.092063
1725.212713	-2.606800	3.181000	-8.291900	40.633371	40.097381
1726.212355	-2.620500	3.179600	-8.331500	40.639814	40.083445
1727.211485	-2.616300	3.179900	-8.319200	40.643653	40.084738
1728.210631	-2.595900	3.179800	-8.254100	40.623797	40.087439
1729.212090	-2.599400	3.180300	-8.266700	40.637981	40.085978
1730.212035	-2.592200	3.179200	-8.240700	40.637744	40.082466
1731.215613	-2.591300	3.180300	-8.241100	40.640829	40.076817
1732.216428	-2.610800	3.178500	-8.298100	40.645917	40.077540
1733.212626	-2.597700	3.180700	-8.262200	40.640245	40.075141
1734.211336	-2.629600	3.179500	-8.360000	40.631478	40.075105
1735.213159	-2.607400	3.179400	-8.289600	40.653380	40.075179
1736.211494	-2.583100	3.178300	-8.209400	40.619183	40.085734
1737.211525	-2.601200	3.178500	-8.267800	40.648098	40.076446
1738.215758	-2.583000	3.179900	-8.213500	40.633015	40.082466
1739.213764	-2.571800	3.179400	-8.176500	40.627737	40.071363
1740.218924	-2.614000	3.178500	-8.308100	40.654680	40.087035
1741.211051	-2.605600	3.177700	-8.279700	40.641399	40.067560
1742.211753	-2.615500	3.178700	-8.313500	40.653531	40.080790
1743.209976	-2.601000	3.178200	-8.265400	40.641801	40.080701
1744.210405	-2.580700	3.179100	-8.203200	40.646906	40.085081
1745.211004	-2.551300	3.178600	-8.108900	40.648414	40.094232
1746.213602	-2.594200	3.178700	-8.246200	40.630272	40.091369
1747.212056	-2.599900	3.179200	-8.264900	40.641593	40.092140
1748.210678	-2.603200	3.177800	-8.271900	40.651674	40.092035
1749.211779	-2.584000	3.178000	-8.211100	40.644283	40.075542
1750.214519	-2.590400	3.178600	-8.233800	40.644827	40.081181
1751.215151	-2.571300	3.177400	-8.169500	40.652383	40.074182
1752.216523	-2.605500	3.177200	-8.277600	40.638628	40.079347
1753.213862	-2.576400	3.179300	-8.190800	40.638281	40.079728
1754.212818	-2.624700	3.177500	-8.339800	40.645057	40.086142
1755.212665	-2.597100	3.177200	-8.251200	40.642791	40.084239
1756.211307	-2.595500	3.177300	-8.246400	40.649825	40.074898
1757.212917	-2.609200	3.178200	-8.292200	40.643478	40.082015
1758.216698	-2.591600	3.178300	-8.236300	40.642666	40.077928
1759.216301	-2.582500	3.177600	-8.205500	40.655026	40.057536
1760.213778	-2.616900	3.177000	-8.313000	40.637949	40.080852
1761.213369	-2.602300	3.177300	-8.267900	40.661793	40.078137
1762.212066	-2.582700	3.176700	-8.203900	40.665163	40.072409
1763.213310	-2.609900	3.177400	-8.292200	40.649752	40.082832
1764.211954	-2.618700	3.177500	-8.320700	40.642747	40.092930
1765.214716	-2.583800	3.176700	-8.207500	40.642563	40.074912
1766.214973	-2.607000	3.177600	-8.283500	40.651315	40.086216
1767.216817	-2.594800	3.178300	-8.246500	40.657206	40.065177
1768.217862	-2.619000	3.177300	-8.320800	40.662601	40.078581
1769.213992	-2.573600	3.176800	-8.175100	40.647987	40.088346
1770.210402	-2.549900	3.177100	-8.100800	40.654246	40.072042
1771.212500	-2.628600	3.176800	-8.350000	40.645379	40.082825
1772.214129	-2.587600	3.177200	-8.220900	40.649735	40.059522
1773.212012	-2.642100	3.174800	-8.387600	40.652737	40.057794
1774.215677	-2.608500	3.176400	-8.285400	40.651382	40.059714
1775.212277	-2.567900	3.177600	-8.159600	40.655612	40.059942
1776.210892	-2.602900	3.174900	-8.263500	40.650773	40.077302
1777.212518	-2.578400	3.177800	-8.193300	40.649129	40.086576
1778.216085	-2.628000	3.175600	-8.345000	40.647095	40.053241
1779.215469	-2.583200	3.177600	-8.207600	40.660287	40.074083
1780.211517	-2.562100	3.176500	-8.138300	40.676859	40.064093
1781.214325	-2.608000	3.176200	-8.282800	40.646370	40.037230
1782.216141	-2.610900	3.176000	-8.291900	40.653304	40.066369
1783.216205	-2.628200	3.174200	-8.342100	40.664604	40.059111
1784.212920	-2.596500	3.175700	-8.245300	40.664801	40.068407
1785.213950	-2.597100	3.175900	-8.248200	40.673343	40.086052
1786.216176	-2.615900	3.176900	-8.310000	40.649323	40.059110
1787.213846	-2.571500	3.176200	-8.167700	40.668368	40.072340
1788.214520	-2.585200	3.175300	-8.208100	40.661911	40.078983
1789.216695	-2.599900	3.174900	-8.254100	40.652264	40.072971
1790.216002	-2.607700	3.175400	-8.280500	40.665435	40.091971
1791.214232	-2.600300	3.175800	-8.257400	40.657554	40.074988
1792.211624	-2.617100	3.174700	-8.307900	40.674485	40.089743
1793.212513	-2.597500	3.175100	-8.247300	40.669230	40.083029
1794.212916	-2.603900	3.175300	-8.267700	40.654647	40.086274
1795.212411	-2.603200	3.175500	-8.266300	40.666153	40.081043
1796.212514	-2.577600	3.175800	-8.185500	40.659332	40.071672
1797.213569	-2.598400	3.175300	-8.250400	40.664921	40.073259
1798.213115	-2.599100	3.174600	-8.251400	40.661195	40.072443
1799.211719	-2.602000	3.173200	-8.256200	40.667265	40.091983
1800.214821	-2.594000	3.174600	-8.234300	40.659779	40.077214
1801.214447	-2.607700	3.173600	-8.275300	40.658004	40.087084
1802.212800	-2.600600	3.174500	-8.255000	40.681882	40.093504
1803.212473	-2.616000	3.174100	-8.303100	40.678805	40.080235
1804.213090	-2.586700	3.174500	-8.211200	40.691639	40.081791
1805.212452	-2.589900	3.174300	-8.220800	40.680848	40.092105
1806.215154	-2.615200	3.173800	-8.300000	40.662676	40.089211
1807.212090	-2.584100	3.174300	-8.202100	40.674597	40.093859
1808.213437	-2.598100	3.174900	-8.248400	40.665516	40.079313
1809.215646	-2.601400	3.173600	-8.255000	40.676556	40.089267
1810.213372	-2.582400	3.173700	-8.195600	40.697204	40.074257
1811.217560	-2.578500	3.174200	-8.183900	40.681890	40.078954
1812.215555	-2.569800	3.174100	-8.156100	40.683341	40.099695
1813.217689	-2.628900	3.173500	-8.342300	40.662548	40.074161
1814.216090	-2.617700	3.172800	-8.305200	40.674856	40.081015
1815.213765	-2.583500	3.173900	-8.199300	40.678752	40.071810
1816.211829	-2.595300	3.174400	-8.238500	40.682903	40.067592
1817.211821	-2.579900	3.173500	-8.186500	40.686655	40.072438
1818.211079	-2.614000	3.174700	-8.298500	40.688162	40.077586
1819.212907	-2.635900	3.173500	-8.364500	40.680203	40.078357
1820.213153	-2.596900	3.174100	-8.242000	40.676171	40.069228
1821.212000	-2.630700	3.173400	-8.347700	40.678086	40.076967
1822.211668	-2.589600	3.173100	-8.216300	40.671661	40.082186
1823.212627	-2.613100	3.173700	-8.293300	40.665007	40.083172
1824.211736	-2.606200	3.173700	-8.271300	40.684358	40.076691
1825.211249	-2.618200	3.172600	-8.306600	40.666866	40.076297
1826.212839	-2.617900	3.173100	-8.306700	40.691489	40.092197
1827.212051	-2.609400	3.173100	-8.279400	40.689171	40.080050
1828.211434	-2.610500	3.173000	-8.282500	40.680650	40.068978
1829.213213	-2.622800	3.172300	-8.319400	40.693558	40.068062
1830.211658	-2.622700	3.171800	-8.318200	40.694509	40.077385
1831.212577	-2.622200	3.173100	-8.320200	40.700742	40.061055
1832.214155	-2.591000	3.172700	-8.220100	40.684113	40.059704
1833.213850	-2.608500	3.171100	-8.271500	40.692673	40.051162
1834.211497	-2.614100	3.171400	-8.289800	40.690745	40.068523
1835.212394	-2.583200	3.172400	-8.194500	40.693993	40.077595
1836.210600	-2.621600	3.172000	-8.315400	40.695676	40.064721
1837.216947	-2.593900	3.172600	-8.229000	40.696447	40.085511
1838.214512	-2.612000	3.171900	-8.284600	40.703359	40.077504
1839.214574	-2.632300	3.171800	-8.348900	40.684798	40.084410
1840.216081	-2.608600	3.171400	-8.272500	40.705503	40.071277
1841.213098	-2.595400	3.172400	-8.233400	40.698113	40.066796
1842.212561	-2.625700	3.172800	-8.330500	40.701466	40.059959
1843.211138	-2.593400	3.172500	-8.227500	40.715308	40.065073
1844.210952	-2.583400	3.171700	-8.193600	40.703899	40.083503
1845.212426	-2.609300	3.172300	-8.277000	40.694770	40.082740
1846.212866	-2.609400	3.171000	-8.274400	40.690299	40.082271
1847.211016	-2.593300	3.170800	-8.222900	40.711320	40.073821
1848.211874	-2.598400	3.171900	-8.241300	40.691877	40.073659
1849.211296	-2.636600	3.170900	-8.359600	40.697689	40.056908
1850.213053	-2.603200	3.171300	-8.255100	40.706183	40.072686
1851.212457	-2.564200	3.171600	-8.131900	40.704439	40.076036
1852.210749	-2.605100	3.171200	-8.260700	40.705474	40.078891
1853.212193	-2.596000	3.171300	-8.232100	40.719806	40.064478
1854.218237	-2.619500	3.170700	-8.305200	40.702866	40.071915
1855.213715	-2.576500	3.170800	-8.169000	40.701223	40.056440
1856.213817	-2.604900	3.171200	-8.260500	40.738381	40.071051
1857.213571	-2.612200	3.170800	-8.282100	40.714494	40.075542
1858.215633	-2.594300	3.171000	-8.226400	40.716257	40.080216
1859.211498	-2.618800	3.170100	-8.301600	40.731583	40.067162
1860.212158	-2.619000	3.170800	-8.303900	40.720850	40.073893
1861.213684	-2.609900	3.169800	-8.272600	40.713548	40.080782
1862.210882	-2.607000	3.170400	-8.264600	40.715332	40.080748
1863.214846	-2.588600	3.170000	-8.205400	40.722446	40.082405
1864.214327	-2.615300	3.170100	-8.290500	40.722753	40.071430
1865.212083	-2.580200	3.170400	-8.179900	40.721710	40.082033
1866.215358	-2.584100	3.170500	-8.192300	40.716039	40.079635
1867.213591	-2.593400	3.170100	-8.220900	40.723363	40.082595
1868.211982	-2.578300	3.170900	-8.175200	40.716960	40.073277
1869.213540	-2.588600	3.171100	-8.208500	40.718363	40.068857
1870.214592	-2.578700	3.170500	-8.175000	40.724280	40.075505
1871.215590	-2.612000	3.169300	-8.277800	40.730955	40.081820
1872.214440	-2.614200	3.170000	-8.286700	40.722584	40.071261
1873.216544	-2.598200	3.169600	-8.235200	40.723281	40.051576
1874.215387	-2.609400	3.169500	-8.270300	40.727769	40.068078
1875.211010	-2.622500	3.170600	-8.315000	40.733121	40.077800
1876.214118	-2.604000	3.168500	-8.250500	40.718176	40.084320
1877.212924	-2.576300	3.170000	-8.166100	40.735681	40.088368
1878.210764	-2.600700	3.169100	-8.241400	40.744771	40.070894
1879.212237	-2.615700	3.168800	-8.288200	40.738609	40.077831
1880.211582	-2.611400	3.169100	-8.275800	40.743457	40.064848
1881.213269	-2.593000	3.169200	-8.217500	40.744672	40.074434
1882.213527	-2.612700	3.170200	-8.282200	40.738229	40.067260
1883.211064	-2.608200	3.170300	-8.268000	40.728947	40.081630
1884.212816	-2.589400	3.169400	-8.206300	40.723538	40.071124
1885.211692	-2.621400	3.168900	-8.306900	40.750476	40.062043
1886.220398	-2.606600	3.169800	-8.261900	40.748885	40.071734
1887.211785	-2.615600	3.169300	-8.289000	40.739085	40.059382
1888.213425	-2.589400	3.169600	-8.207000	40.726064	40.067464
1889.211470	-2.603500	3.170600	-8.254100	40.747856	40.058694
1890.211462	-2.611500	3.169100	-8.275900	40.749180	40.060382
1891.211688	-2.625300	3.168500	-8.317800	40.747739	40.070951
1892.214042	-2.618500	3.168100	-8.295500	40.756679	40.086084
1893.214596	-2.609400	3.169300	-8.269800	40.765064	40.077003
1894.215507	-2.591900	3.168600	-8.212700	40.754038	40.080529
1895.215065	-2.599800	3.168300	-8.236600	40.751255	40.066462
1896.213842	-2.602800	3.168900	-8.247900	40.761073	40.075193
1897.211198	-2.591700	3.169400	-8.214100	40.751997	40.059561
1898.210076	-2.609500	3.167600	-8.265400	40.761735	40.078768
1899.211318	-2.609400	3.169000	-8.268500	40.750845	40.076243
1900.213241	-2.604100	3.167300	-8.247700	40.763726	40.086219
1901.211565	-2.557400	3.169100	-8.103600	40.760238	40.081273
1902.212423	-2.604600	3.168900	-8.253600	40.764753	40.075236
1903.212033	-2.586200	3.167800	-8.192500	40.773812	40.070834
1904.216588	-2.603500	3.168900	-8.249900	40.772897	40.083748
1905.212969	-2.612700	3.167700	-8.276100	40.756857	40.050229
1906.213359	-2.590000	3.167800	-8.204500	40.748850	40.062600
1907.211089	-2.609400	3.167100	-8.263800	40.762354	40.084118
1908.212718	-2.561000	3.167700	-8.112200	40.775761	40.073147
1909.216255	-2.622300	3.167700	-8.306400	40.748707	40.071192
1910.214088	-2.601900	3.166600	-8.238800	40.766786	40.084549
1911.217778	-2.616600	3.166900	-8.286000	40.773708	40.075461
1912.211530	-2.587200	3.166100	-8.190800	40.773077	40.071918
1913.211926	-2.616300	3.167700	-8.287500	40.773700	40.085279
1914.212186	-2.630000	3.167400	-8.330200	40.777224	40.081527
1915.210966	-2.590500	3.167700	-8.205300	40.768381	40.067583
1916.210912	-2.612000	3.167200	-8.272200	40.780460	40.073845
1917.211998	-2.605600	3.167400	-8.252800	40.772888	40.064085
1918.212110	-2.599800	3.166600	-8.232200	40.759342	40.078557
1919.215160	-2.603200	3.166900	-8.243300	40.782255	40.059991
1920.215009	-2.595400	3.166300	-8.217800	40.768915	40.060111
1921.216534	-2.609900	3.167200	-8.265900	40.772414	40.066159
1922.213943	-2.592300	3.166700	-8.208700	40.791273	40.071926
1923.213052	-2.600000	3.165000	-8.228600	40.776430	40.069813
1924.210347	-2.627000	3.166300	-8.317400	40.776392	40.056672
1925.214363	-2.612300	3.166100	-8.270300	40.777423	40.048241
1926.212992	-2.612700	3.166600	-8.273000	40.780636	40.057279
1927.214921	-2.591900	3.166500	-8.206700	40.787127	40.061955
1928.214641	-2.609000	3.165900	-8.259000	40.776544	40.069928
1929.215119	-2.560200	3.166100	-8.105200	40.774556	40.062479
1930.213965	-2.604200	3.165800	-8.244000	40.766835	40.068948
1931.212277	-2.612300	3.166800	-8.272000	40.797248	40.065165
1932.211115	-2.579200	3.166100	-8.165200	40.779026	40.073866
1933.211885	-2.605700	3.167000	-8.251600	40.789830	40.069390
1934.212394	-2.591800	3.166500	-8.206700	40.795537	40.070005
1935.212563	-2.607400	3.165400	-8.253300	40.778196	40.068305
1936.215606	-2.597900	3.165900	-8.224200	40.775489	40.064868
1937.215467	-2.580300	3.166200	-8.168900	40.780030	40.062496
1938.211857	-2.579900	3.166400	-8.168600	40.786487	40.076237
1939.211169	-2.583100	3.164800	-8.174300	40.796635	40.062732
1940.212438	-2.588300	3.166700	-8.196000	40.801802	40.058804
1941.212047	-2.591300	3.164800	-8.200600	40.769574	40.090978
1942.215110	-2.588200	3.164600	-8.190100	40.802357	40.063363
1943.215534	-2.598300	3.165500	-8.224800	40.792682	40.082071
1944.217589	-2.558400	3.166700	-8.101900	40.789611	40.062619
1945.215412	-2.602700	3.164900	-8.237400	40.797190	40.068019
1946.210384	-2.598000	3.165600	-8.224200	40.785958	40.056781
1947.212259	-2.607100	3.164700	-8.250400	40.805650	40.057922
1948.213712	-2.591900	3.164800	-8.202300	40.795142	40.061603
1949.214586	-2.584400	3.165400	-8.180200	40.786614	40.058530
1950.212541	-2.644000	3.164100	-8.365700	40.807288	40.066841
1951.217643	-2.594200	3.164100	-8.208200	40.808316	40.065321
1952.213224	-2.603700	3.164500	-8.238900	40.803970	40.053329
1953.213098	-2.615100	3.163000	-8.271300	40.800066	40.059250
1954.212765	-2.602400	3.165200	-8.236700	40.807727	40.074923
1955.211191	-2.593500	3.164900	-8.207900	40.805924	40.060380
1956.212059	-2.619900	3.164000	-8.288600	40.807713	40.067265
1957.212543	-2.602500	3.164100	-8.233900	40.812693	40.084259
1958.213782	-2.622000	3.164800	-8.297700	40.815520	40.074713
1959.212840	-2.607300	3.164100	-8.249600	40.820549	40.066279
1960.216235	-2.617400	3.165000	-8.283800	40.798664	40.077502
1961.213006	-2.633400	3.163000	-8.328700	40.822095	40.071465
1962.213940	-2.597100	3.164100	-8.216800	40.810136	40.075513
1963.215859	-2.635300	3.163500	-8.335900	40.797945	40.058584
1964.215020	-2.593200	3.163400	-8.203500	40.824435	40.064707
1965.212163	-2.586300	3.163200	-8.181200	40.817678	40.065225
1966.214474	-2.615100	3.163300	-8.272000	40.820266	40.080189
1967.212165	-2.585900	3.162700	-8.177700	40.804100	40.070565
1968.211400	-2.614300	3.164400	-8.272600	40.807936	40.087506
1969.212511	-2.619600	3.162600	-8.285000	40.817128	40.050844
1970.212357	-2.587800	3.164000	-8.187600	40.819719	40.065812
1971.212425	-2.585700	3.163400	-8.179700	40.816307	40.051479
1972.213619	-2.595000	3.163100	-8.207700	40.827602	40.057321
1973.213038	-2.581400	3.164100	-8.167500	40.821389	40.067483
1974.215046	-2.595400	3.161700	-8.205400	40.821768	40.058763
1975.211898	-2.606200	3.161900	-8.239900	40.827250	40.076623
1976.213502	-2.625900	3.162000	-8.302500	40.821993	40.060808
1977.212192	-2.595300	3.163800	-8.210400	40.829730	40.076920
1978.216317	-2.581900	3.163300	-8.166900	40.825905	40.074549
1979.213326	-2.584400	3.163800	-8.176300	40.839154	40.053594
1980.216186	-2.587300	3.162100	-8.180600	40.834159	40.068250
1981.213737	-2.585900	3.162500	-8.177500	40.821654	40.053189
1982.214036	-2.620400	3.162900	-8.288000	40.814296	40.066937
1983.211765	-2.606500	3.162500	-8.243000	40.831441	40.083729
1984.211049	-2.613400	3.162800	-8.265300	40.830291	40.082213
1985.212617	-2.627400	3.162000	-8.307800	40.812703	40.061704
1986.211001	-2.622800	3.161700	-8.292300	40.829061	40.054414
1987.212154	-2.606400	3.162800	-8.243300	40.825342	40.034677
1988.210986	-2.627500	3.162500	-8.309100	40.843912	40.057990
1989.213068	-2.587900	3.162000	-8.182600	40.827015	40.059646
1990.216096	-2.590300	3.161300	-8.188500	40.831976	40.052963
1991.211455	-2.581200	3.161600	-8.160200	40.825969	40.057871
1992.212772	-2.607200	3.162600	-8.245000	40.850599	40.063226
1993.212763	-2.602700	3.162700	-8.231200	40.843268	40.070449
1994.212142	-2.595200	3.161400	-8.204300	40.824451	40.059992
1995.212166	-2.611700	3.161200	-8.255700	40.836294	40.081305
1996.212046	-2.605300	3.161700	-8.236800	40.838601	40.070510
1997.217552	-2.578800	3.161900	-8.153600	40.866733	40.068451
1998.216478	-2.606000	3.161200	-8.237400	40.852960	40.049938
1999.216178	-2.594900	3.161800	-8.204100	40.841624	40.056794
2000.213044	-2.610000	3.161900	-8.252200	40.858402	40.058659
2001.212923	-2.593500	3.161400	-8.199000	40.850921	40.068280
2002.212067	-2.622900	3.161300	-8.291400	40.863592	40.086782
2003.213677	-2.608900	3.161300	-8.247400	40.846958	40.082513
2004.213884	-2.567400	3.161100	-8.115700	40.846460	40.077646
2005.212777	-2.600900	3.160500	-8.219900	40.867396	40.057832
2006.211954	-2.635100	3.160900	-8.329100	40.860069	40.061055
2007.215794	-2.609600	3.161000	-8.248300	40.863234	40.069682
2008.215470	-2.563600	3.161500	-8.104100	40.862211	40.071206
2009.211647	-2.593200	3.160300	-8.194700	40.871927	40.059090
2010.213828	-2.613300	3.160800	-8.259700	40.867739	40.062907
2011.210855	-2.607700	3.161300	-8.243400	40.874830	40.060539
2012.211661	-2.584400	3.160400	-8.167300	40.859445	40.061159
2013.216846	-2.638800	3.158900	-8.335300	40.871003	40.056709
2014.215529	-2.595500	3.161400	-8.205500	40.872585	40.058293
2015.214368	-2.601500	3.159800	-8.220000	40.867929	40.070375
2016.215691	-2.610600	3.160700	-8.251000	40.876917	40.074638
2017.213734	-2.579600	3.161200	-8.154000	40.877743	40.084199
2018.212368	-2.573800	3.159800	-8.132300	40.871064	40.053495
2019.213064	-2.595600	3.161300	-8.205000	40.874203	40.068647
2020.211506	-2.595100	3.160100	-8.200200	40.880465	40.061082
2021.213438	-2.597000	3.159200	-8.203900	40.870795	40.072880
2022.211646	-2.605700	3.159900	-8.233600	40.872168	40.050960
2023.217966	-2.589300	3.160000	-8.182300	40.886016	40.054626
2024.214142	-2.590800	3.159700	-8.185600	40.892354	40.060603
2025.212301	-2.587300	3.160600	-8.176900	40.874816	40.055793
2026.213305	-2.604100	3.158500	-8.224100	40.893644	40.075362
2027.211937	-2.617600	3.159700	-8.270400	40.889404	40.072938
2028.214433	-2.586700	3.160000	-8.173700	40.900335	40.055488
2029.213533	-2.582900	3.159400	-8.159800	40.884177	40.055334
2030.215857	-2.606500	3.159100	-8.233600	40.901374	40.067082
2031.212584	-2.588900	3.159500	-8.179000	40.900253	40.057589
2032.215858	-2.605800	3.158900	-8.230900	40.900250	40.067777
2033.216451	-2.649600	3.159700	-8.371400	40.902920	40.056255
2034.215226	-2.594600	3.158300	-8.194200	40.886861	40.055471
2035.213681	-2.609900	3.158500	-8.243300	40.896655	40.057992
2036.214552	-2.605800	3.159100	-8.231100	40.896337	40.069685
2037.213768	-2.596500	3.158500	-8.200800	40.896930	40.081197
2038.213827	-2.594800	3.158000	-8.193500	40.907734	40.064711
2039.213592	-2.591800	3.158600	-8.186200	40.887414	40.083686
2040.212156	-2.592100	3.158300	-8.186300	40.910217	40.080299
2041.213682	-2.599900	3.158400	-8.211100	40.896887	40.069144
2042.211850	-2.612200	3.158700	-8.250500	40.906544	40.070799
2043.213171	-2.591200	3.158900	-8.185100	40.910129	40.063104
2044.212060	-2.608700	3.159200	-8.241100	40.911240	40.067491
2045.214365	-2.617400	3.159000	-8.267600	40.923033	40.054178
2046.213593	-2.588800	3.158400	-8.176300	40.909336	40.059398
2047.212339	-2.604400	3.158000	-8.224600	40.910142	40.072216
2048.213740	-2.607100	3.158300	-8.233800	40.909794	40.058402
2049.211961	-2.604300	3.158800	-8.225800	40.923459	40.056788
2050.212050	-2.592500	3.158500	-8.188200	40.919402	40.067652
2051.216684	-2.581700	3.157100	-8.150300	40.911806	40.063327
2052.214647	-2.630600	3.158100	-8.307300	40.921853	40.072288
2053.214867	-2.588200	3.157700	-8.172200	40.939800	40.070229
2054.215461	-2.594900	3.156700	-8.190800	40.933122	40.063546
2055.217677	-2.623600	3.158000	-8.284900	40.917895	40.066143
2056.216733	-2.619300	3.157800	-8.271000	40.916171	40.071334
2057.217470	-2.618600	3.157700	-8.268500	40.920090	40.068340
2058.211872	-2.578300	3.157300	-8.140100	40.929849	40.062819
2059.213424	-2.611000	3.157700	-8.244100	40.933564	40.051615
2060.211286	-2.632300	3.157200	-8.310100	40.937346	40.082332
2061.211910	-2.581600	3.157200	-8.149800	40.929524	40.073413
2062.212529	-2.588500	3.158300	-8.174700	40.919986	40.086434
2063.212270	-2.587500	3.158100	-8.171300	40.939306	40.059180
2064.211995	-2.586400	3.156200	-8.162500	40.941069	40.066767
2065.211555	-2.641700	3.157400	-8.340600	40.924462	40.066164
2066.214489	-2.586300	3.157100	-8.164800	40.928250	40.067407
2067.214170	-2.612500	3.157300	-8.248200	40.937776	40.066748
2068.212888	-2.591100	3.157300	-8.180000	40.943356	40.071604
2069.216068	-2.628500	3.157400	-8.298900	40.936259	40.072145
2070.212523	-2.612500	3.156600	-8.246300	40.930483	40.066729
2071.215953	-2.587700	3.156400	-8.167600	40.935031	40.058541
2072.212543	-2.616100	3.157100	-8.258800	40.940791	40.063942
2073.216434	-2.599000	3.156100	-8.202600	40.934084	40.079432
2074.215912	-2.593100	3.156800	-8.185600	40.924385	40.078098
2075.214560	-2.605200	3.156600	-8.223300	40.953486	40.090475
2076.211714	-2.591400	3.156300	-8.178900	40.941913	40.043590
2077.213906	-2.604500	3.155900	-8.219400	40.932194	40.054247
2078.212620	-2.577700	3.156200	-8.135300	40.943778	40.071662
2079.212955	-2.580600	3.156600	-8.145700	40.947435	40.058943
2080.212507	-2.585800	3.155900	-8.160400	40.962704	40.057117
2081.216606	-2.597400	3.155700	-8.196200	40.957269	40.056409
2082.213801	-2.619800	3.156700	-8.269600	40.958851	40.048166
2083.212543	-2.631400	3.156100	-8.304100	40.956195	40.056426
2084.212949	-2.594200	3.156300	-8.187200	40.956218	40.052446
2085.212930	-2.594900	3.156400	-8.190100	40.964554	40.038950
2086.213386	-2.592100	3.156300	-8.181400	40.962464	40.064884
2087.211498	-2.596000	3.156000	-8.193000	40.969194	40.059244
2088.213102	-2.597400	3.155800	-8.196500	40.963575	40.062720
2089.211228	-2.610400	3.156000	-8.238300	40.964771	40.049358
2090.214757	-2.627500	3.154700	-8.288100	40.960269	40.051405
2091.211418	-2.562300	3.155500	-8.084600	40.973642	40.051684
2092.212739	-2.603600	3.155500	-8.215200	40.979772	40.044352
2093.215213	-2.607600	3.155400	-8.227500	40.964956	40.041536
2094.215531	-2.610800	3.154800	-8.236300	40.966070	40.065581
2095.212369	-2.588000	3.155700	-8.166600	40.967699	40.063935
2096.217569	-2.586100	3.155700	-8.160900	40.967824	40.058965
2097.210385	-2.612400	3.154600	-8.240800	40.973926	40.054880
2098.210711	-2.605500	3.154100	-8.218100	40.973896	40.036652
2099.210157	-2.629800	3.154100	-8.294400	40.964641	40.059783
2100.211173	-2.588500	3.153900	-8.163500	40.981554	40.058510
2101.213395	-2.593400	3.154900	-8.181600	40.985965	40.039994
2102.211847	-2.592700	3.155100	-8.180100	40.976840	40.058524
2103.213685	-2.590000	3.154400	-8.169500	40.981304	40.053892
2104.216774	-2.605800	3.153800	-8.217900	40.975115	40.049882
2105.214534	-2.599000	3.155000	-8.199500	40.973476	40.049335
2106.211728	-2.602300	3.154000	-8.207000	41.001243	40.052007
2107.213747	-2.608300	3.154000	-8.226900	40.989339	40.055018
2108.211994	-2.616800	3.153600	-8.252000	40.989677	40.042617
2109.215306	-2.627500	3.153000	-8.284100	40.993381	40.040864
2110.214999	-2.598800	3.154300	-8.197400	41.001274	40.049491
2111.218296	-2.609600	3.154500	-8.231800	40.981451	40.050036
2112.210747	-2.568600	3.153700	-8.100000	40.997634	40.074238
2113.210279	-2.611600	3.153300	-8.234700	40.999365	40.039938
2114.214000	-2.597000	3.152400	-8.186000	40.998943	40.045703
2115.213967	-2.636200	3.152400	-8.310600	41.012214	40.061531
2116.213156	-2.595000	3.153700	-8.183400	41.002703	40.061840
2117.212899	-2.594300	3.153300	-8.180000	41.000747	40.052240
2118.212320	-2.598400	3.153000	-8.192400	41.013578	40.070176
2119.213184	-2.604900	3.151700	-8.209800	41.010273	40.070872
2120.214735	-2.610500	3.152000	-8.227800	41.006950	40.059903
2121.215093	-2.569300	3.153600	-8.102300	41.014864	40.063455
2122.212997	-2.597000	3.153000	-8.187900	40.998574	40.053340
2123.211376	-2.604700	3.152000	-8.210000	41.002022	40.050239
2124.216432	-2.599400	3.153200	-8.196100	41.016773	40.055175
2125.215020	-2.606800	3.153200	-8.219500	41.014300	40.052700
2126.216475	-2.625600	3.152200	-8.276300	40.999799	40.056022
2127.215333	-2.628100	3.153300	-8.287100	41.008708	40.055111
2128.213658	-2.575500	3.153000	-8.120100	41.034655	40.060331
2129.215921	-2.611700	3.151600	-8.230900	41.013011	40.036851
2130.214357	-2.592900	3.152200	-8.173300	41.002252	40.057385
2131.212039	-2.594400	3.152000	-8.177000	41.013963	40.054546
2132.212088	-2.597000	3.152300	-8.186200	41.028118	40.044326
2133.211670	-2.588700	3.152300	-8.160200	41.034138	40.065273
2134.213486	-2.601800	3.152400	-8.202100	41.017926	40.041770
2135.213521	-2.586300	3.152800	-8.153700	41.028106	40.053050
2136.217319	-2.605800	3.151500	-8.211800	41.031918	40.049585
2137.212811	-2.617900	3.151200	-8.249100	41.028718	40.044198
2138.212801	-2.583300	3.151300	-8.140400	41.034324	40.044714
2139.211554	-2.592200	3.151600	-8.169200	41.032945	40.047701
2140.216416	-2.625000	3.151300	-8.271400	41.023743	40.070521
2141.212203	-2.616200	3.151200	-8.244000	41.023373	40.056684
2142.214370	-2.612700	3.151500	-8.233300	41.022984	40.045375
2143.213951	-2.604400	3.151100	-8.206000	41.036301	40.040504
2144.211789	-2.583500	3.151000	-8.140300	41.028818	40.052306
2145.210456	-2.618700	3.151000	-8.250700	41.039513	40.064829
2146.213091	-2.568500	3.151300	-8.093600	41.044631	40.056120
2147.213373	-2.576200	3.151600	-8.118800	41.039848	40.058977
2148.213049	-2.594800	3.151300	-8.177000	41.050206	40.051873
2149.212831	-2.587500	3.151800	-8.154500	41.039525	40.038272
2150.212952	-2.587900	3.150400	-8.152800	41.047602	40.055818
2151.213702	-2.574500	3.150500	-8.110600	41.051388	40.047232
2152.210429	-2.621500	3.151100	-8.260100	41.053128	40.051157
2153.217976	-2.568600	3.150800	-8.092900	41.049800	40.042003
2154.213009	-2.602700	3.150500	-8.199300	41.055744	40.039580
2155.211416	-2.551800	3.151100	-8.040400	41.040021	40.051143
2156.212329	-2.597300	3.150800	-8.183100	41.058747	40.050593
2157.212739	-2.579300	3.151500	-8.128000	41.052305	40.046694
2158.213086	-2.593400	3.149600	-8.167500	41.042975	40.062470
2159.213233	-2.567100	3.149300	-8.084100	41.063519	40.039354
2160.212581	-2.589700	3.150800	-8.158700	41.059722	40.053025
2161.215736	-2.592000	3.151000	-8.167400	41.053642	40.063682
2162.212511	-2.589900	3.149900	-8.157800	41.063197	40.042671
2163.211813	-2.600100	3.149100	-8.187400	41.059845	40.065523
2164.212138	-2.585700	3.150500	-8.145600	41.055266	40.020904
2165.212560	-2.589600	3.149800	-8.156500	41.074018	40.028387
2166.213141	-2.619600	3.149100	-8.249000	41.067312	40.028227
2167.214615	-2.610000	3.149300	-8.219600	41.068683	40.038699
2168.213301	-2.592300	3.149000	-8.162700	41.070684	40.034150
2169.216185	-2.593800	3.148200	-8.165400	41.061063	40.040537
2170.211426	-2.621300	3.148500	-8.253100	41.069894	40.038091
2171.211766	-2.562500	3.149900	-8.071100	41.076100	40.051217
2172.216511	-2.595500	3.148600	-8.171900	41.081419	40.036158
2173.214427	-2.581900	3.148100	-8.127500	41.070637	40.037014
2174.213593	-2.604800	3.149400	-8.203200	41.080218	40.041508
2175.218597	-2.615600	3.149400	-8.237300	41.092033	40.050785
2176.215922	-2.624500	3.147800	-8.260900	41.068494	40.045425
2177.212256	-2.592600	3.148300	-8.162300	41.091947	40.050698
2178.214174	-2.583700	3.148600	-8.135000	41.087554	40.049578
2179.213532	-2.596800	3.147900	-8.174100	41.084799	40.031534
2180.213268	-2.595600	3.148400	-8.172100	41.084846	40.048687
2181.210818	-2.613600	3.148800	-8.229700	41.080788	40.035891
2182.212026	-2.551300	3.148700	-8.033000	41.090942	40.043869
2183.218084	-2.595100	3.148000	-8.169000	41.090785	40.024058
2184.213447	-2.591600	3.147800	-8.157400	41.090832	40.041211
2185.214347	-2.587800	3.148300	-8.147000	41.087818	40.050570
2186.214763	-2.597300	3.148700	-8.178000	41.113895	40.043183
2187.212955	-2.569300	3.148200	-8.088400	41.091758	40.052693
2188.214787	-2.573600	3.148400	-8.102700	41.093888	40.041722
2189.214521	-2.581100	3.147700	-8.124400	41.092794	40.062829
2190.212028	-2.579500	3.146900	-8.117200	41.084063	40.059551
2191.215137	-2.607700	3.147400	-8.207100	41.094660	40.026844
2192.212073	-2.596300	3.146700	-8.169100	41.091434	40.034898
2193.211694	-2.582000	3.147400	-8.126100	41.100366	40.050025
2194.213331	-2.619100	3.147100	-8.242300	41.105170	40.030447
2195.216655	-2.586600	3.147200	-8.140300	41.105816	40.040193
2196.213679	-2.587200	3.147000	-8.141700	41.117422	40.052901
2197.213251	-2.602600	3.146600	-8.189200	41.100793	40.043537
2198.215461	-2.586800	3.147300	-8.141000	41.094453	40.038284
2199.211388	-2.591200	3.147400	-8.155400	41.108506	40.062175
2200.213216	-2.586400	3.147300	-8.139900	41.116867	40.040335
2201.214513	-2.607600	3.147400	-8.206700	41.102211	40.040953
2202.210907	-2.581000	3.146500	-8.121100	41.110442	40.039364
2203.213397	-2.566900	3.147800	-8.079900	41.111714	40.047915
2204.216393	-2.590300	3.147500	-8.152200	41.094878	40.032886
2205.213957	-2.604100	3.146000	-8.192400	41.111737	40.042844
2206.214077	-2.613100	3.147000	-8.223200	41.123655	40.056591
2207.212762	-2.597000	3.145000	-8.167400	41.116688	40.059081
2208.213126	-2.595900	3.146000	-8.166800	41.128194	40.036384
2209.213218	-2.580900	3.145900	-8.118500	41.124319	40.018675
2210.213196	-2.593900	3.147100	-8.162200	41.128317	40.039055
2211.212306	-2.603400	3.146800	-8.192100	41.129795	40.040899
2212.214581	-2.601100	3.145600	-8.181700	41.134340	40.036348
2213.213786	-2.586900	3.146200	-8.138900	41.125091	40.057665
2214.212519	-2.585600	3.145300	-8.132000	41.135557	40.055036
2215.212957	-2.599400	3.145600	-8.176400	41.145967	40.050169
2216.213302	-2.607700	3.144900	-8.200700	41.150250	40.043900
2217.215235	-2.570800	3.145800	-8.087000	41.134040	40.053518
2218.214154	-2.622400	3.145200	-8.247600	41.151333	40.038069
2219.214312	-2.581300	3.145700	-8.119600	41.147095	40.039287
2220.218807	-2.597000	3.145000	-8.167600	41.139458	40.061853
2221.216091	-2.591600	3.144900	-8.150000	41.141975	40.051633
2222.212515	-2.581400	3.144900	-8.118000	41.147608	40.040892
2223.212622	-2.593300	3.144300	-8.153600	41.148100	40.034469
2224.213193	-2.626100	3.144600	-8.257300	41.157995	40.061115
2225.212502	-2.597300	3.144700	-8.167500	41.153548	40.056664
2226.212322	-2.635100	3.143400	-8.282900	41.166404	40.034590
2227.213885	-2.587100	3.145000	-8.135900	41.166713	40.038175
2228.214890	-2.644500	3.142500	-8.310200	41.166634	40.041009
2229.213468	-2.606400	3.143300	-8.192700	41.157517	40.046078
2230.215001	-2.574500	3.144800	-8.095700	41.170342	40.048723
2231.211530	-2.590000	3.144500	-8.144000	41.170133	40.044510
2232.212317	-2.622100	3.143800	-8.242700	41.170622	40.024618
2233.210978	-2.574200	3.144500	-8.093900	41.169089	40.033274
2234.213049	-2.624700	3.142800	-8.248100	41.165864	40.021311
2235.213503	-2.577300	3.144100	-8.103100	41.177113	40.035846
2236.213480	-2.582800	3.143500	-8.118800	41.166871	40.029235
2237.217123	-2.605100	3.142300	-8.185500	41.181080	40.059106
2238.212558	-2.585700	3.143000	-8.126600	41.185672	40.034949
2239.214199	-2.607300	3.143000	-8.194400	41.174995	40.046101
2240.215833	-2.566500	3.143800	-8.068600	41.181826	40.051846
2241.213766	-2.608500	3.142700	-8.197400	41.183796	40.052726
2242.213329	-2.576600	3.142400	-8.096800	41.177664	40.046953
2243.214422	-2.625000	3.142000	-8.247900	41.180571	40.059325
2244.214581	-2.602300	3.142200	-8.176400	41.175394	40.055236
2245.213655	-2.619900	3.141800	-8.230500	41.192590	40.039326
2246.211624	-2.602600	3.143300	-8.180000	41.189755	40.035396
2247.210970	-2.617400	3.141200	-8.221600	41.163546	40.053204
2248.214508	-2.566100	3.143200	-8.064800	41.175256	40.056189
2249.212576	-2.578200	3.143100	-8.102900	41.185776	40.050704
2250.211205	-2.595000	3.141300	-8.151600	41.194527	40.032893
2251.214127	-2.646200	3.141300	-8.312100	41.184390	40.032938
2252.213727	-2.592100	3.142300	-8.144900	41.190520	40.048901
2253.210495	-2.595600	3.142400	-8.156200	41.186672	40.041046
2254.215262	-2.599800	3.141300	-8.165900	41.182311	40.040320
2255.215760	-2.571600	3.141200	-8.077300	41.193006	40.051025
2256.216403	-2.621900	3.141100	-8.235000	41.196536	40.048006
2257.213470	-2.610000	3.142000	-8.200300	41.196013	40.048939
2258.212653	-2.604500	3.140800	-8.179800	41.188970	40.050625
2259.213325	-2.621400	3.140900	-8.233500	41.207568	40.049586
2260.213061	-2.613000	3.141200	-8.207700	41.203148	40.052077
2261.213448	-2.594100	3.140500	-8.145800	41.191067	40.056363
2262.217649	-2.585300	3.141700	-8.121900	41.210264	40.059199
2263.212977	-2.596800	3.142000	-8.158700	41.205479	40.040216
2264.213827	-2.601200	3.140400	-8.168600	41.193087	40.049650
2265.212433	-2.605900	3.140300	-8.182800	41.202670	40.053055
2266.214860	-2.598300	3.141700	-8.162600	41.211835	40.050945
2267.214886	-2.631600	3.139500	-8.261500	41.220774	40.068626
2268.212969	-2.617400	3.139700	-8.217700	41.199856	40.038591
2269.214801	-2.594300	3.140100	-8.145600	41.217259	40.046182
2270.213227	-2.596800	3.140600	-8.155200	41.211414	40.061079
2271.212615	-2.583400	3.141200	-8.114200	41.206345	40.049453
2272.213258	-2.591600	3.140100	-8.137600	41.229670	40.051689
2273.213786	-2.572400	3.140800	-8.079000	41.210676	40.052332
2274.212759	-2.590100	3.139900	-8.132200	41.224128	40.044686
2275.212412	-2.591800	3.140800	-8.139800	41.219398	40.029761
2276.212811	-2.622800	3.138900	-8.232100	41.220824	40.041744
2277.215312	-2.606900	3.139300	-8.183700	41.226666	40.047227
2278.210969	-2.634900	3.138400	-8.269100	41.227106	40.043664
2279.212925	-2.615200	3.139200	-8.208900	41.227028	40.048317
2280.216316	-2.570400	3.138800	-8.067700	41.216920	40.042931
2281.217321	-2.607400	3.139600	-8.185800	41.232375	40.026372
2282.213188	-2.595600	3.138500	-8.145900	41.227931	40.042306
2283.215460	-2.599700	3.138500	-8.158700	41.226344	40.027250
2284.215192	-2.599400	3.139700	-8.160900	41.226056	40.038973
2285.211609	-2.610100	3.138800	-8.192000	41.241274	40.036007
2286.212265	-2.599300	3.138200	-8.156600	41.227530	40.042632
2287.213458	-2.614900	3.138800	-8.207100	41.260518	40.037434
2288.213613	-2.604700	3.138200	-8.174100	41.240797	40.038805
2289.213083	-2.591100	3.137500	-8.129600	41.248977	40.036438
2290.211812	-2.616500	3.137100	-8.207700	41.246613	40.047902
2291.212877	-2.580600	3.138800	-8.099800	41.240636	40.040827
2292.217110	-2.607400	3.137500	-8.180400	41.258998	40.020626
2293.216595	-2.612000	3.138100	-8.196500	41.237123	40.032216
2294.213806	-2.565900	3.138300	-8.052000	41.242682	40.039236
2295.214620	-2.587100	3.137800	-8.117800	41.249620	40.052003
2296.212183	-2.585100	3.138500	-8.112500	41.252781	40.047160
2297.213835	-2.616200	3.137500	-8.208300	41.244128	40.035587
2298.214329	-2.592000	3.137300	-8.131300	41.264541	40.053108
2299.214158	-2.602800	3.138300	-8.167800	41.263086	40.040369
2300.214674	-2.583600	3.138100	-8.107400	41.263084	40.039639
2301.214536	-2.598400	3.136100	-8.148300	41.262072	40.044449
2302.216474	-2.628400	3.137300	-8.245400	41.267546	40.037189
2303.213983	-2.603600	3.136300	-8.165600	41.261599	40.041792
2304.215304	-2.605800	3.136700	-8.173500	41.259701	40.047535
2305.213248	-2.579600	3.137300	-8.092900	41.256687	40.043427
2306.214539	-2.618800	3.136000	-8.212000	41.252785	40.055900
2307.212580	-2.613500	3.136300	-8.196400	41.258313	40.070168
2308.211997	-2.628200	3.136600	-8.242700	41.259043	40.043237
2309.213178	-2.583500	3.136900	-8.103900	41.268284	40.057946
2310.213718	-2.614200	3.136100	-8.197900	41.274152	40.038706
2311.213478	-2.608900	3.136700	-8.182900	41.281060	40.045257
2312.217830	-2.593400	3.135800	-8.132100	41.267112	40.049494
2313.215193	-2.581000	3.136000	-8.093700	41.262511	40.052168
2314.212629	-2.631800	3.135600	-8.251800	41.261573	40.050865
2315.213026	-2.566700	3.135100	-8.046300	41.279364	40.059574
2316.216337	-2.587600	3.136900	-8.116900	41.261388	40.050680
2317.212003	-2.621200	3.136600	-8.221700	41.278607	40.062091
2318.216054	-2.605100	3.135500	-8.167800	41.281071	40.068926
2319.218358	-2.600200	3.135400	-8.152100	41.283621	40.046728
2320.216434	-2.602400	3.135500	-8.159500	41.269697	40.055357
2321.213211	-2.599500	3.135600	-8.150100	41.264706	40.040898
2322.214081	-2.587900	3.136100	-8.115400	41.274261	40.040271
2323.212085	-2.577900	3.135800	-8.083100	41.285794	40.048540
2324.212360	-2.600900	3.135400	-8.154600	41.276286	40.057584
2325.211883	-2.605100	3.135600	-8.168400	41.268205	40.057868
2326.213205	-2.617400	3.135400	-8.206200	41.274017	40.061501
2327.216883	-2.580900	3.135100	-8.091300	41.286717	40.058563
2328.217128	-2.609500	3.134200	-8.178200	41.280170	40.038907
2329.211987	-2.581900	3.135400	-8.094700	41.285757	40.047411
2330.210894	-2.580900	3.134900	-8.090300	41.295573	40.048865
2331.214376	-2.591200	3.134400	-8.121400	41.288792	40.044626
2332.214016	-2.568300	3.133100	-8.045800	41.296141	40.060716
2333.214829	-2.587100	3.133900	-8.107600	41.285881	40.034068
2334.215546	-2.579800	3.134400	-8.085400	41.282914	40.044565
2335.212843	-2.580800	3.134700	-8.089900	41.295723	40.048651
2336.210797	-2.605800	3.134100	-8.166400	41.305277	40.054939
2337.212114	-2.575600	3.135100	-8.074800	41.297017	40.059045
2338.210528	-2.596300	3.134400	-8.137800	41.298599	40.051530
2339.212170	-2.596900	3.133900	-8.137700	41.309689	40.057899
2340.212189	-2.551800	3.135000	-7.999600	41.306438	40.054281
2341.214103	-2.620800	3.133800	-8.213100	41.292667	40.053235
2342.215701	-2.601100	3.134100	-8.151600	41.305241	40.054174
2343.212706	-2.597100	3.133000	-8.136400	41.327752	40.046862
2344.212178	-2.609500	3.133500	-8.176800	41.322557	40.055857
2345.215054	-2.607300	3.133800	-8.170800	41.325124	40.041684
2346.219254	-2.625000	3.132400	-8.222400	41.315516	40.037162
2347.215181	-2.607200	3.133100	-8.168400	41.318004	40.053848
2348.216379	-2.604000	3.133400	-8.159200	41.329144	40.042796
2349.212581	-2.591300	3.132900	-8.117800	41.318601	40.036247
2350.213734	-2.606500	3.133600	-8.167300	41.315220	40.049605
2351.210927	-2.599500	3.132900	-8.143400	41.319945	40.040504
2352.212826	-2.621300	3.132100	-8.210100	41.322488	40.041229
2353.211818	-2.577400	3.133300	-8.075500	41.333579	40.054879
2354.213049	-2.592000	3.131300	-8.116300	41.336200	40.048404
2355.214057	-2.580700	3.132600	-8.083800	41.335756	40.048324
2356.211624	-2.600900	3.132600	-8.147500	41.325077	40.042365
2357.213155	-2.621700	3.133000	-8.213400	41.331023	40.043950
2358.215946	-2.623300	3.131700	-8.215200	41.333358	40.049198
2359.215191	-2.616300	3.131200	-8.191700	41.327385	40.041764
2360.211392	-2.606800	3.130700	-8.160100	41.329378	40.037935
2361.211394	-2.580100	3.132600	-8.082200	41.342522	40.040537
2362.216678	-2.590300	3.132300	-8.113100	41.340622	40.049190
2363.212656	-2.607900	3.130500	-8.163700	41.334155	40.036166
2364.214186	-2.594900	3.132700	-8.128500	41.326698	40.040712
2365.216728	-2.620000	3.130300	-8.201100	41.335242	40.054724
2366.212160	-2.596100	3.132000	-8.130500	41.327263	40.049284
2367.212867	-2.594900	3.131000	-8.124100	41.329888	40.050821
2368.213342	-2.592100	3.131000	-8.115600	41.318303	40.053055
2369.211431	-2.602500	3.130900	-8.148400	41.334639	40.049753
2370.212223	-2.593600	3.131200	-8.120800	41.338814	40.029546
2371.212175	-2.605200	3.131200	-8.156700	41.339571	40.050322
2372.213582	-2.591900	3.130400	-8.113500	41.351668	40.034042
2373.213178	-2.573700	3.131100	-8.058300	41.354109	40.015011
2374.211853	-2.591800	3.129700	-8.111100	41.361483	40.023121
2375.212386	-2.589900	3.129700	-8.105800	41.363195	40.038665
2376.215105	-2.577600	3.130700	-8.069300	41.354756	40.032037
2377.214726	-2.593800	3.130200	-8.119000	41.350260	40.038456
2378.212513	-2.567500	3.130700	-8.038000	41.358852	40.032862
2379.216412	-2.571100	3.130500	-8.048300	41.353814	40.039829
2380.216899	-2.626300	3.129400	-8.217700	41.370224	40.028595
2381.212936	-2.611000	3.130100	-8.172300	41.361082	40.018715
2382.215987	-2.600300	3.129300	-8.136600	41.373697	40.040807
2383.213347	-2.607200	3.129700	-8.159000	41.365513	40.028975
2384.211453	-2.609600	3.128300	-8.163400	41.379508	40.028790
2385.212712	-2.599200	3.130300	-8.136000	41.364157	40.024342
2386.212889	-2.615300	3.129500	-8.184000	41.366907	40.048569
2387.212631	-2.617500	3.129600	-8.191400	41.352647	40.050309
2388.213945	-2.582900	3.129600	-8.083400	41.377576	40.034863
2389.213034	-2.617200	3.129300	-8.189400	41.374587	40.027139
2390.213945	-2.612800	3.129100	-8.175200	41.380969	40.028433
2391.214579	-2.604400	3.129200	-8.149300	41.375903	40.037556
2392.211546	-2.606000	3.127300	-8.149800	41.359825	40.034928
2393.214399	-2.624300	3.129300	-8.212000	41.370211	40.039137
2394.217196	-2.595200	3.127600	-8.116500	41.369482	40.025668
2395.217270	-2.618500	3.127000	-8.187700	41.360077	40.031540
2396.215864	-2.617200	3.127100	-8.184300	41.372407	40.032964
2397.217227	-2.602300	3.127300	-8.137900	41.379185	40.050304
2398.218593	-2.617500	3.127200	-8.185000	41.374297	40.045412
2399.212905	-2.580900	3.127700	-8.071900	41.389358	40.002252
2400.214057	-2.606900	3.126400	-8.150200	41.380810	40.019174
2401.211130	-2.595800	3.126800	-8.116400	41.388080	40.030455
2402.213821	-2.605900	3.127800	-8.150300	41.393402	40.026319
2403.211932	-2.595900	3.125800	-8.114200	41.369220	40.015943
2404.215054	-2.593100	3.127300	-8.109000	41.380408	40.039153
2405.214221	-2.585700	3.127100	-8.085400	41.393471	40.019109
2406.214790	-2.608300	3.127700	-8.157900	41.367055	40.044714
2407.212525	-2.613400	3.126000	-8.169000	41.385597	40.031609
2408.215194	-2.578900	3.126000	-8.061700	41.391696	40.057368
2409.213111	-2.600900	3.125700	-8.129600	41.401613	40.024348
2410.214857	-2.577000	3.126700	-8.057300	41.399874	40.012051
2411.217078	-2.602900	3.126600	-8.138200	41.387377	40.035211
2412.213764	-2.615700	3.126300	-8.177000	41.405658	40.033856
2413.214803	-2.596800	3.125200	-8.115200	41.408855	40.019587
2414.211972	-2.622700	3.125300	-8.196800	41.403577	40.031409
2415.213946	-2.604600	3.125200	-8.139700	41.413028	40.026312
2416.212181	-2.612400	3.126300	-8.166900	41.412247	40.019706
2417.212141	-2.617600	3.124500	-8.178300	41.407880	40.010967
2418.214057	-2.612400	3.125000	-8.163600	41.409596	40.034159
2419.215322	-2.605700	3.125700	-8.144300	41.400890	40.016345
2420.214993	-2.600400	3.126100	-8.129100	41.406836	40.026665
2421.214187	-2.619800	3.125900	-8.189000	41.403404	40.028325
2422.213511	-2.582300	3.125700	-8.070900	41.409300	40.037502
2423.217336	-2.588700	3.126000	-8.092100	41.421477	40.039865
2424.215322	-2.602200	3.123900	-8.128900	41.403865	40.056447
2425.215061	-2.579600	3.125700	-8.062700	41.418457	40.017551
2426.212241	-2.591400	3.124700	-8.096600	41.400095	40.025376
2427.215025	-2.594600	3.124200	-8.105800	41.413130	40.030054
2428.211777	-2.571500	3.125200	-8.036500	41.416788	40.049003
2429.213054	-2.615500	3.123500	-8.168700	41.421019	40.032492
2430.214147	-2.591000	3.123200	-8.091600	41.410914	40.043850
2431.213285	-2.610700	3.123700	-8.155000	41.419690	40.041352
2432.212015	-2.616700	3.124400	-8.175200	41.439370	40.027932
2433.218197	-2.598200	3.123800	-8.115900	41.420645	40.023018
2434.213669	-2.600100	3.123000	-8.119900	41.445860	40.018415
2435.214632	-2.617000	3.122900	-8.172400	41.423263	40.028915
2436.211919	-2.580000	3.124100	-8.059600	41.435649	40.003461
2437.213578	-2.602200	3.123000	-8.126100	41.445747	40.008839
2438.210981	-2.582200	3.122800	-8.063200	41.426946	40.022774
2439.215392	-2.583900	3.123600	-8.070800	41.456548	40.030935
2440.216301	-2.633600	3.120900	-8.218800	41.437796	40.025992
2441.216439	-2.586400	3.123500	-8.078300	41.432781	40.040262
2442.214753	-2.578200	3.123300	-8.052100	41.443580	40.036879
2443.218138	-2.581300	3.122200	-8.059300	41.440179	40.032382
2444.216645	-2.618700	3.122600	-8.177200	41.448564	40.018210
2445.215059	-2.599100	3.122100	-8.114200	41.445656	40.022942
2446.212845	-2.595600	3.122500	-8.105000	41.437316	40.025512
2447.211969	-2.608900	3.121400	-8.143100	41.440924	40.021481
2448.214119	-2.612300	3.120500	-8.151400	41.447310	40.013679
2449.211203	-2.603200	3.122700	-8.128700	41.458216	40.032240
2450.211972	-2.610100	3.122100	-8.148800	41.451384	40.036320
2451.212102	-2.611900	3.122400	-8.154800	41.470909	40.026021
2452.211227	-2.596700	3.121700	-8.106100	41.457302	40.033146
2453.213159	-2.577600	3.122400	-8.048000	41.463221	40.031063
2454.212447	-2.623700	3.121900	-8.190300	41.465713	40.032830
2455.212966	-2.605400	3.121400	-8.131900	41.465115	40.019856
2456.216226	-2.588000	3.121200	-8.076900	41.454516	40.023441
2457.213074	-2.612300	3.120800	-8.152100	41.474406	40.021515
2458.214498	-2.594100	3.121000	-8.095800	41.470120	40.011764
2459.212562	-2.583700	3.121500	-8.064900	41.470846	40.023409
2460.210874	-2.628700	3.120000	-8.201300	41.468791	40.022809
2461.212052	-2.591500	3.120000	-8.085200	41.468376	40.015477
2462.214542	-2.529900	3.121100	-7.895300	41.483772	40.035259
2463.213283	-2.548000	3.121500	-7.953100	41.451647	40.039130
2464.217027	-2.605200	3.118800	-8.124500	41.485095	40.027119
2465.216445	-2.611200	3.121200	-8.149800	41.467278	40.015107
2466.215034	-2.635900	3.119600	-8.222500	41.468134	40.034526
2467.216021	-2.594700	3.119800	-8.094100	41.473195	40.031585
2468.216542	-2.565100	3.121100	-8.005800	41.473788	40.043826
2469.214870	-2.623200	3.119600	-8.183000	41.478461	40.039405
2470.215943	-2.589500	3.120300	-8.079900	41.471449	40.048400
2471.214993	-2.633500	3.119200	-8.214000	41.489236	40.043640
2472.215152	-2.596000	3.118900	-8.096200	41.467808	40.038568
2473.211942	-2.616600	3.118500	-8.159500	41.478455	40.043402
2474.211185	-2.607100	3.117900	-8.128600	41.472817	40.038486
2475.212922	-2.597300	3.118600	-8.099600	41.469467	40.039500
2476.212403	-2.631400	3.119400	-8.207800	41.487616	40.031099
2477.212208	-2.579500	3.118900	-8.044600	41.488496	40.032344
2478.213575	-2.599400	3.117700	-8.103600	41.467460	40.010193
2479.216218	-2.613400	3.119600	-8.152200	41.474782	40.039361
2480.212814	-2.557900	3.119700	-7.979300	41.481038	40.032521
2481.213328	-2.613600	3.118300	-8.149300	41.479477	40.028775
2482.213798	-2.593700	3.117600	-8.085700	41.496433	40.025367
2483.216477	-2.599500	3.117900	-8.104800	41.500067	40.025366
2484.215681	-2.596400	3.118300	-8.095800	41.479344	40.038833
2485.217669	-2.601900	3.118100	-8.112500	41.493521	40.021361
2486.216114	-2.575600	3.118100	-8.030600	41.512110	40.037787
2487.212475	-2.628100	3.118100	-8.193700	41.493541	40.043583
2488.212473	-2.601000	3.117900	-8.109500	41.501877	40.042465
2489.212894	-2.591600	3.117300	-8.078200	41.500602	40.033909
2490.213011	-2.605800	3.117100	-8.122000	41.493796	40.048205
2491.214979	-2.578100	3.117100	-8.036100	41.499091	40.042588
2492.212555	-2.604500	3.116800	-8.117400	41.499660	40.034058
2493.212680	-2.630000	3.116900	-8.197000	41.510096	40.032495
2494.215676	-2.609800	3.116800	-8.133800	41.507991	40.030388
2495.213686	-2.596500	3.116100	-8.090400	41.515703	40.015178
2496.210546	-2.583600	3.116600	-8.051600	41.510378	40.034597
2497.211907	-2.620500	3.115900	-8.164700	41.521282	40.023675
2498.214170	-2.581800	3.117500	-8.048700	41.521409	40.015795
2499.216150	-2.610700	3.115900	-8.134600	41.511903	40.023021
2500.216083	-2.583700	3.116500	-8.052200	41.529221	40.027255
2501.214665	-2.586200	3.116600	-8.060100	41.523298	40.031153
2502.220335	-2.604800	3.116000	-8.115800	41.528463	40.029409
2503.217339	-2.584500	3.115800	-8.052800	41.528046	40.023167
2504.215809	-2.577400	3.115400	-8.029300	41.533757	40.027793
2505.212013	-2.558100	3.116300	-7.971500	41.525029	40.030338
2506.212869	-2.558500	3.116300	-7.972800	41.525417	40.027451
2507.211297	-2.586100	3.116400	-8.059300	41.531153	40.021910
2508.213175	-2.561000	3.115200	-7.978000	41.535927	40.018682
2509.212228	-2.577100	3.115900	-8.029800	41.531616	40.032566
2510.215602	-2.607500	3.114100	-8.119400	41.536392	40.037346
2511.215186	-2.566400	3.115300	-7.994500	41.517225	40.023981
2512.211236	-2.608800	3.115700	-8.128100	41.528286	40.024500
2513.214277	-2.597800	3.114100	-8.089800	41.540228	40.022261
2514.212667	-2.582100	3.114400	-8.041100	41.539837	40.042616
2515.212771	-2.585500	3.114500	-8.052300	41.528695	40.034737
2516.214334	-2.617300	3.113200	-8.148000	41.547934	40.022697
2517.215129	-2.549300	3.116200	-7.943200	41.528560	40.042973
2518.218287	-2.595000	3.113100	-8.078300	41.544086	40.047598
2519.218243	-2.597400	3.114300	-8.088300	41.543408	40.031632
2520.211642	-2.579700	3.115000	-8.035300	41.533823	40.020216
2521.212075	-2.629600	3.114100	-8.188800	41.553324	40.039740
2522.210992	-2.592800	3.114100	-8.073700	41.548830	40.027961
2523.212879	-2.547600	3.113600	-7.931800	41.542800	40.034300
2524.213734	-2.603600	3.112800	-8.104600	41.534230	40.037731
2525.214310	-2.634100	3.113300	-8.200500	41.531319	40.024989
2526.216992	-2.628300	3.112900	-8.181500	41.537732	40.024857
2527.215168	-2.606300	3.113500	-8.114700	41.534483	40.032524
2528.211646	-2.588500	3.114800	-8.062100	41.544037	40.018795
2529.212145	-2.588300	3.113500	-8.058400	41.543175	40.025940
2530.214165	-2.590200	3.113900	-8.065300	41.554420	40.029191
2531.215613	-2.602300	3.113900	-8.102900	41.559325	40.029733
2532.213125	-2.607000	3.113300	-8.116000	41.559270	40.029315
2533.215034	-2.601600	3.112700	-8.097800	41.558412	40.032823
2534.215140	-2.613600	3.113100	-8.135900	41.551762	40.019250
2535.213951	-2.555300	3.113300	-7.955200	41.545891	40.030478
2536.213003	-2.605100	3.112100	-8.107000	41.557807	40.015110
2537.213412	-2.588500	3.112700	-8.056700	41.541939	40.026158
2538.212081	-2.598800	3.112600	-8.089200	41.553674	40.028807
2539.215699	-2.616400	3.112400	-8.142900	41.562527	40.028571
2540.211773	-2.628100	3.111800	-8.177500	41.546294	40.025422
2541.213091	-2.594900	3.112700	-8.077000	41.553875	40.031920
2542.212900	-2.572500	3.112700	-8.007000	41.552783	40.022456
2543.217333	-2.620300	3.112400	-8.155400	41.567633	40.022401
2544.212556	-2.593500	3.112300	-8.071400	41.551092	40.033137
2545.213833	-2.614900	3.112200	-8.137700	41.554438	40.025933
2546.211128	-2.591400	3.112200	-8.064500	41.544101	40.028323
2547.215863	-2.609900	3.111200	-8.119400	41.565004	40.013217
2548.215616	-2.589500	3.112400	-8.059200	41.555835	40.033519
2549.214789	-2.597300	3.111700	-8.081300	41.549316	40.032816
2550.215517	-2.596000	3.112400	-8.079300	41.561544	40.010480
2551.213239	-2.597400	3.111700	-8.082000	41.553027	40.021244
2552.214663	-2.611300	3.110800	-8.122800	41.562347	40.006553
2553.212445	-2.604800	3.111600	-8.105000	41.551128	40.015703
2554.212192	-2.604800	3.111900	-8.105300	41.552711	40.011100
2555.212095	-2.608700	3.111600	-8.116700	41.571717	40.027945
2556.213225	-2.603500	3.111800	-8.101300	41.568106	40.026150
2557.214866	-2.588200	3.110300	-8.049600	41.569975	40.012006
2558.215120	-2.616500	3.111700	-8.141700	41.568286	40.021599
2559.212994	-2.603300	3.111100	-8.098700	41.559869	40.021907
2560.213384	-2.624300	3.110800	-8.163500	41.564362	40.027861
2561.213571	-2.619500	3.111800	-8.151200	41.554182	40.020580
2562.211497	-2.622300	3.110500	-8.156700	41.579577	40.022348
2563.212995	-2.635500	3.110300	-8.197000	41.578668	40.016342
2564.215380	-2.598500	3.111500	-8.085200	41.583756	40.018161
2565.212138	-2.595600	3.110700	-8.073300	41.572512	40.019641
2566.216797	-2.603900	3.110300	-8.098700	41.550127	40.015793
2567.212993	-2.591300	3.110400	-8.059700	41.580822	40.015951
2568.215222	-2.586600	3.111100	-8.046400	41.573003	40.020133
2569.214494	-2.597100	3.110400	-8.077600	41.576326	40.009993
2570.218026	-2.617300	3.110100	-8.139500	41.577622	40.005104
2571.219665	-2.598800	3.110100	-8.082000	41.571961	40.013995
2572.219781	-2.600800	3.109000	-8.085900	41.578738	40.028787
2573.212721	-2.609200	3.110400	-8.115300	41.585618	40.017113
2574.217797	-2.592300	3.110300	-8.062300	41.575619	40.019477
2575.212976	-2.604200	3.109100	-8.096200	41.584732	40.017682
2576.211952	-2.615200	3.110400	-8.134200	41.564868	40.021088
2577.211722	-2.603900	3.109700	-8.097400	41.576372	40.031878
2578.213027	-2.572100	3.110800	-8.000800	41.574320	40.015264
2579.213728	-2.569600	3.109300	-7.989500	41.576214	40.024076
2580.212441	-2.621700	3.109400	-8.151400	41.586158	40.030393
2581.215476	-2.589000	3.109200	-8.049500	41.583066	40.027661
2582.213782	-2.599300	3.108500	-8.079700	41.592727	40.015859
2583.214659	-2.604400	3.109300	-8.097500	41.584443	40.030860
2584.213213	-2.608800	3.109600	-8.111600	41.591167	40.024125
2585.213239	-2.599300	3.108900	-8.080500	41.586959	40.015179
2586.212589	-2.587500	3.109000	-8.044100	41.607031	40.019261
2587.214422	-2.580300	3.109000	-8.021900	41.573377	40.025239
2588.212264	-2.597700	3.108800	-8.075400	41.615675	40.020637
2589.214553	-2.638500	3.107900	-8.199600	41.605105	40.020245
2590.212934	-2.596000	3.109200	-8.071500	41.602586	40.012263
2591.214656	-2.584200	3.109000	-8.033800	41.597886	40.022481
2592.215892	-2.603500	3.108700	-8.093400	41.592874	40.000355
2593.215041	-2.610800	3.108800	-8.116300	41.588951	40.033189
2594.216945	-2.596600	3.107600	-8.069100	41.597053	40.006723
2595.216091	-2.598200	3.108000	-8.074800	41.601518	40.009738
2596.212227	-2.601200	3.107200	-8.082300	41.596322	40.027830
2597.214730	-2.589700	3.107500	-8.046600	41.602582	40.018810
2598.213332	-2.586500	3.107900	-8.038100	41.607954	40.018366
2599.213153	-2.622900	3.107800	-8.150600	41.602581	40.006434
2600.212262	-2.594100	3.107800	-8.061500	41.600943	40.015350
2601.213279	-2.611100	3.108100	-8.115400	41.615770	40.017819
2602.212687	-2.598600	3.107400	-8.074700	41.597489	40.026814
2603.213607	-2.601100	3.107600	-8.082900	41.614808	40.022680
2604.213238	-2.599000	3.105900	-8.071700	41.608550	40.014595
2605.213005	-2.618800	3.107100	-8.136300	41.614105	40.035079
2606.212318	-2.604300	3.106500	-8.090000	41.624883	40.038227
2607.215703	-2.637600	3.106900	-8.194400	41.606289	40.035261
2608.216587	-2.587700	3.107400	-8.040400	41.624177	40.033517
2609.217253	-2.593900	3.106800	-8.058500	41.598264	40.012303
2610.216885	-2.598700	3.106000	-8.071200	41.631317	40.016644
2611.212811	-2.582300	3.106500	-8.021300	41.625189	40.019971
2612.211978	-2.601900	3.106000	-8.081500	41.635264	40.009676
2613.213111	-2.642700	3.107000	-8.210500	41.623915	40.002316
2614.214175	-2.605100	3.106100	-8.091800	41.626406	40.001899
2615.213650	-2.616000	3.105900	-8.124700	41.627212	40.007074
2616.214935	-2.594200	3.106300	-8.057700	41.633963	40.006918
2617.214201	-2.607900	3.106700	-8.101500	41.622431	40.021214
2618.213053	-2.592800	3.105100	-8.050300	41.620744	40.016248
2619.212867	-2.619400	3.105100	-8.133100	41.624171	40.016404
2620.213426	-2.619700	3.105700	-8.135800	41.619264	40.018770
2621.211885	-2.586200	3.106300	-8.032900	41.621314	40.008447
2622.215421	-2.630500	3.104900	-8.166900	41.613548	40.024695
2623.212478	-2.608400	3.105100	-8.099000	41.614352	40.014944
2624.215104	-2.613800	3.104500	-8.114500	41.618610	40.012292
2625.215624	-2.622000	3.105200	-8.141300	41.616662	40.016893
2626.218590	-2.607300	3.103900	-8.092800	41.623438	40.013486
2627.211133	-2.600800	3.105500	-8.076100	41.631902	40.017593
2628.211925	-2.576300	3.105200	-7.999800	41.620501	40.023649
2629.215493	-2.616800	3.104200	-8.123000	41.615671	40.012261
2630.213479	-2.596300	3.104500	-8.059900	41.621150	40.009012
2631.213401	-2.580800	3.103200	-8.008400	41.618370	40.011324
2632.212396	-2.588200	3.103200	-8.031700	41.613177	40.016679
2633.211597	-2.597600	3.104900	-8.064100	41.620939	40.004432
2634.213429	-2.601400	3.103200	-8.072600	41.630388	40.014986
2635.213898	-2.640800	3.102900	-8.194000	41.642489	39.999075
2636.213597	-2.562700	3.104800	-7.956500	41.628857	40.014180
2637.212461	-2.625000	3.102900	-8.144800	41.630518	40.006380
2638.210971	-2.560800	3.104000	-7.948100	41.621091	40.006041
2639.213136	-2.628800	3.103700	-8.158300	41.627840	40.022261
2640.213258	-2.612900	3.103300	-8.108300	41.632954	40.008091
2641.214089	-2.620000	3.103300	-8.130900	41.640354	40.014408
2642.212805	-2.602100	3.103000	-8.073900	41.646662	40.000341
2643.214486	-2.614500	3.102900	-8.112200	41.634898	40.020593
2644.211546	-2.552800	3.104200	-7.924000	41.646920	40.013339
2645.213761	-2.626900	3.102600	-8.149600	41.643076	40.011674
2646.216785	-2.601200	3.103400	-8.072100	41.634506	39.998362
2647.215768	-2.578200	3.104200	-8.002600	41.654134	40.016559
2648.217870	-2.580600	3.102800	-8.006400	41.644735	39.988585
2649.214038	-2.640800	3.102400	-8.192100	41.665400	39.999813
2650.213392	-2.633900	3.102400	-8.171000	41.645770	40.020559
2651.213383	-2.604600	3.103100	-8.081900	41.629878	40.010835
2652.214591	-2.606200	3.102200	-8.084400	41.651870	40.004829
2653.213000	-2.617500	3.101600	-8.117600	41.650908	40.001317
2654.217687	-2.594800	3.101900	-8.048400	41.658697	40.005477
2655.213532	-2.603600	3.102100	-8.076400	41.651633	39.993672
2656.212559	-2.610900	3.102000	-8.098600	41.641089	40.010413
2657.212375	-2.598900	3.101200	-8.059400	41.660693	40.013663
2658.214030	-2.597000	3.101000	-8.053200	41.671208	40.016184
2659.213993	-2.598000	3.101300	-8.056900	41.656070	40.006122
2660.219754	-2.574100	3.100800	-7.981400	41.668973	40.008122
2661.216258	-2.633000	3.099900	-8.161900	41.657884	40.009758
2662.217829	-2.609400	3.099300	-8.086700	41.655080	40.015686
2663.217136	-2.620700	3.099500	-8.122800	41.655987	40.022782
2664.218146	-2.598800	3.100500	-8.057200	41.646093	40.026706
2665.216539	-2.601800	3.100000	-8.065200	41.651337	40.022857
2666.213747	-2.617800	3.100100	-8.114900	41.667019	40.017813
2667.211776	-2.580300	3.101200	-8.001500	41.660605	40.028133
2668.215495	-2.606100	3.100000	-8.078400	41.661098	40.013340
2669.214022	-2.573800	3.100000	-7.978300	41.649410	40.030028
2670.213440	-2.596600	3.099800	-8.048800	41.665484	40.018096
2671.212563	-2.582900	3.099900	-8.006600	41.682436	40.011775
2672.211922	-2.618700	3.098300	-8.113400	41.657769	40.005275
2673.212453	-2.601700	3.099400	-8.063800	41.666778	40.011384
2674.217206	-2.602800	3.098100	-8.063000	41.661922	40.006158
2675.217234	-2.605000	3.099100	-8.072800	41.657429	40.001296
2676.212406	-2.618600	3.098500	-8.113400	41.664931	39.996796
2677.213009	-2.611200	3.098500	-8.090100	41.677395	40.000904
2678.215986	-2.616700	3.098800	-8.108100	41.662411	39.990268
2679.214161	-2.606400	3.096500	-8.070500	41.669655	40.006621
2680.215593	-2.581200	3.098500	-7.997000	41.670590	40.016657
2681.214725	-2.602500	3.096700	-8.059200	41.674146	40.019125
2682.213251	-2.617400	3.096500	-8.104500	41.677857	40.009738
2683.214121	-2.625800	3.095600	-8.127800	41.668146	40.004018
2684.210487	-2.616200	3.096400	-8.100600	41.669442	40.020967
2685.213253	-2.631500	3.095100	-8.144200	41.687229	40.023854
2686.212739	-2.626000	3.096400	-8.130200	41.675933	40.011451
2687.213121	-2.616100	3.095800	-8.098800	41.678477	40.019094
2688.213302	-2.622900	3.095800	-8.119700	41.683773	40.014934
2689.213925	-2.572600	3.095800	-7.963500	41.678318	40.012020
2690.215921	-2.613900	3.095200	-8.090300	41.674579	40.016647
2691.216581	-2.582400	3.094800	-7.991800	41.683822	40.024446
2692.213680	-2.605100	3.096100	-8.065200	41.687508	40.008847
2693.212475	-2.613700	3.095500	-8.090500	41.681405	40.009287
2694.212194	-2.592800	3.094500	-8.023200	41.672865	40.009471
2695.215400	-2.589200	3.095600	-8.014800	41.674108	40.011808
2696.214004	-2.630500	3.093900	-8.137600	41.673771	40.013654
2697.215673	-2.600900	3.094300	-8.047500	41.686675	40.019295
2698.218789	-2.607500	3.093600	-8.066500	41.684414	39.998833
2699.220290	-2.574400	3.094800	-7.967100	41.676936	40.004085
2700.216706	-2.576800	3.094200	-7.972600	41.693034	40.004188
2701.213344	-2.599900	3.092400	-8.039900	41.677559	39.996337
2702.213418	-2.578400	3.093700	-7.976500	41.681894	40.010141
2703.212332	-2.605500	3.092600	-8.057300	41.697863	40.004292
2704.211926	-2.602200	3.093200	-8.048800	41.679089	39.995321
2705.211519	-2.590200	3.092600	-8.010200	41.694797	40.015781
2706.214044	-2.582300	3.092800	-7.986300	41.701704	39.991394
2707.214683	-2.569100	3.092500	-7.944300	41.699314	39.999557
2708.217707	-2.593100	3.092200	-8.018100	41.698015	40.005900
2709.211837	-2.594900	3.091600	-8.022000	41.692121	39.998906
2710.211179	-2.589300	3.091200	-8.003500	41.691914	40.017261
2711.214696	-2.579700	3.090000	-7.970700	41.693393	39.994720
2712.215468	-2.559400	3.090400	-7.909400	41.684306	40.015832
2713.212757	-2.594500	3.091100	-8.019900	41.676982	40.007406
2714.216891	-2.562600	3.090700	-7.919300	41.701181	40.011982
2715.213740	-2.612000	3.088300	-8.066100	41.693910	40.009069
2716.212070	-2.587700	3.089600	-7.994100	41.694870	40.022406
2717.213877	-2.603200	3.089200	-8.041600	41.700868	40.017856
2718.211233	-2.586400	3.089500	-7.990400	41.692533	40.012422
2719.211905	-2.606000	3.089000	-8.048900	41.704944	40.007015
2720.213786	-2.646200	3.087000	-8.168500	41.709825	40.011174
2721.214819	-2.580400	3.088000	-7.967600	41.713044	39.989646
2722.212618	-2.570900	3.087500	-7.937300	41.707772	40.005842
2723.212322	-2.597000	3.087300	-8.017300	41.703488	40.010288
2724.212791	-2.602400	3.086700	-8.032600	41.698841	39.997263
2725.212638	-2.606200	3.086400	-8.043500	41.711043	39.997106
2726.213158	-2.624800	3.085300	-8.097900	41.701383	40.002721
2727.212017	-2.576900	3.085900	-7.951600	41.715223	39.996196
2728.214595	-2.605100	3.085500	-8.038000	41.699927	40.010727
2729.215640	-2.615900	3.085800	-8.071400	41.717142	39.989018
2730.213254	-2.589400	3.085000	-7.987500	41.729240	39.992397
2731.213674	-2.620700	3.085600	-8.085900	41.722359	40.002614
2732.212753	-2.590500	3.084700	-7.990300	41.722669	40.000013
2733.215842	-2.603600	3.084500	-8.030600	41.724149	39.989119
2734.217971	-2.607800	3.083300	-8.040200	41.730952	40.000299
2735.215966	-2.609200	3.082700	-8.043300	41.728224	40.013219
2736.216611	-2.568200	3.083400	-7.918700	41.721785	39.990755
2737.216558	-2.609200	3.082000	-8.041100	41.730586	39.992289
2738.213963	-2.596100	3.082900	-8.003500	41.715293	39.991534
2739.213802	-2.639200	3.080800	-8.130000	41.725859	39.993743
2740.213644	-2.603500	3.080700	-8.020400	41.720587	39.991740
2741.212738	-2.619300	3.080300	-8.068500	41.736088	39.993795
2742.213152	-2.573400	3.079900	-7.925400	41.737307	39.996835
2743.213625	-2.603300	3.081000	-8.020000	41.726870	39.979104
2744.213346	-2.593200	3.080100	-7.987200	41.715496	40.000110
2745.216015	-2.580100	3.079300	-7.944600	41.734190	39.994442
2746.214400	-2.609000	3.079000	-8.032500	41.730191	40.003541
2747.214874	-2.585000	3.079200	-7.959000	41.744729	40.007907
2748.214242	-2.618200	3.077300	-8.056500	41.737459	39.995168
2749.211607	-2.599600	3.078400	-8.002600	41.740235	39.997583
2750.212201	-2.577900	3.079000	-7.936900	41.730057	40.004863
2751.218475	-2.576500	3.079100	-7.932400	41.751711	39.999247
2752.216257	-2.583400	3.075800	-7.945800	41.748621	39.981957
2753.217197	-2.600100	3.075400	-7.996300	41.743142	40.005225
2754.214789	-2.604600	3.075900	-8.011300	41.746335	39.990588
2755.213520	-2.586600	3.075100	-7.953400	41.739714	40.002521
2756.214074	-2.606100	3.074200	-8.011200	41.738830	40.007823
2757.212235	-2.600000	3.074000	-7.991600	41.755316	39.993394
2758.212086	-2.589300	3.074300	-7.959100	41.752355	40.008627
2759.211469	-2.605000	3.073100	-8.005500	41.746228	39.999216
2760.214190	-2.588900	3.072400	-7.954100	41.746278	40.003271
2761.212580	-2.604200	3.071700	-7.998800	41.749913	39.995262
2762.213622	-2.630300	3.072300	-8.080700	41.751002	40.001085
2763.217573	-2.599300	3.071600	-7.983600	41.761102	39.988996
2764.214003	-2.627400	3.070300	-8.066800	41.748276	39.981976
2765.216870	-2.594800	3.071900	-7.970600	41.757309	39.996117
2766.215718	-2.611300	3.069500	-8.014500	41.772576	39.985563
2767.213197	-2.611800	3.068700	-8.014900	41.762839	39.991463
2768.214047	-2.607200	3.069900	-8.003400	41.758632	39.997442
2769.214764	-2.617700	3.069000	-8.033300	41.772652	40.004566
2770.214807	-2.602100	3.068100	-7.983000	41.764396	40.013405
2771.214904	-2.620600	3.066700	-8.036200	41.763277	40.012649
2772.216898	-2.626300	3.066300	-8.052700	41.774520	40.000976
2773.216339	-2.610700	3.067900	-8.009200	41.771637	40.006825
2774.214557	-2.590900	3.066500	-7.944400	41.765223	40.003314
2775.212530	-2.615900	3.065900	-8.019300	41.768234	39.995774
2776.213355	-2.628000	3.065100	-8.054800	41.788147	40.004795
2777.212685	-2.557800	3.065000	-7.839000	41.792405	39.998867
2778.213371	-2.603600	3.064500	-7.978200	41.782564	39.989377
2779.212230	-2.577400	3.063500	-7.895400	41.785030	39.995850
2780.215469	-2.607400	3.063600	-7.987600	41.771892	39.988881
2781.213982	-2.613500	3.062300	-8.002800	41.762728	39.982252
2782.217133	-2.591200	3.062600	-7.935500	41.786379	39.980093
2783.214469	-2.593400	3.062100	-7.940800	41.775576	40.002762
2784.212562	-2.625300	3.060000	-8.033000	41.796009	39.975906
2785.211152	-2.590800	3.060600	-7.928900	41.781937	40.000396
2786.213466	-2.596600	3.060000	-7.945000	41.786921	40.002839
2787.213789	-2.569600	3.060200	-7.863200	41.769110	39.999927
2788.214646	-2.634100	3.060000	-8.059600	41.806703	39.996806
2789.213263	-2.613900	3.058300	-7.993400	41.800367	40.006113
2790.213557	-2.577600	3.058800	-7.883800	41.807116	40.009231
2791.214931	-2.584000	3.058000	-7.901200	41.805818	39.986821
2792.212779	-2.617000	3.056800	-7.999000	41.811451	40.001925
2793.212306	-2.619500	3.055400	-8.003400	41.795770	39.996049
2794.213545	-2.597100	3.055400	-7.934400	41.809944	40.004055
2795.212031	-2.614000	3.055200	-7.985900	41.815032	40.002963
2796.216116	-2.600200	3.054000	-7.940800	41.795482	40.000857
2797.214748	-2.639200	3.052500	-8.056300	41.805139	40.016351
2798.213764	-2.578200	3.052400	-7.869500	41.815341	40.009460
2799.212252	-2.594000	3.053200	-7.919700	41.817652	40.003766
2800.216324	-2.578900	3.052100	-7.870200	41.817002	40.010031
2801.212406	-2.615600	3.052500	-7.983900	41.831020	39.994587
2802.217562	-2.582200	3.052600	-7.882400	41.824426	39.987983
2803.215981	-2.599900	3.050400	-7.930300	41.839508	39.985616
2804.213927	-2.613000	3.048800	-7.966100	41.825255	39.988814
2805.214149	-2.597900	3.049000	-7.920500	41.823878	39.990347
2806.211531	-2.624800	3.047100	-7.997900	41.825460	39.981376
2807.212561	-2.611400	3.048100	-7.959700	41.818217	39.986133
2808.213671	-2.593200	3.047400	-7.902000	41.836856	39.996428
2809.213388	-2.608100	3.046800	-7.945600	41.823979	39.980984
2810.214567	-2.616200	3.045600	-7.967000	41.838309	39.987327
2811.214406	-2.617800	3.046100	-7.973300	41.836569	40.006331
2812.215442	-2.618400	3.043700	-7.969300	41.835114	39.984492
2813.213205	-2.590000	3.044100	-7.883900	41.824756	39.993773
2814.214680	-2.606300	3.042800	-7.930100	41.848847	39.981865
2815.212165	-2.572100	3.043600	-7.828100	41.851624	39.984646
2816.213682	-2.586600	3.041600	-7.867100	41.825350	39.991821
2817.216749	-2.579800	3.040800	-7.844200	41.848949	39.975051
2818.214114	-2.602600	3.040500	-7.912800	41.833008	39.981654
2819.216596	-2.597800	3.039800	-7.896700	41.843704	39.995641
2820.215169	-2.604600	3.039100	-7.915000	41.845053	40.006820
2821.216849	-2.595900	3.037900	-7.886200	41.847338	40.002192
2822.211797	-2.598900	3.038300	-7.895800	41.854632	39.996394
2823.210213	-2.612600	3.037000	-7.934000	41.853671	39.993612
2824.212800	-2.615000	3.035600	-7.938000	41.846245	39.997094
2825.213516	-2.569800	3.035600	-7.800500	41.850425	40.003828
2826.213978	-2.598300	3.034100	-7.883300	41.855876	40.002372
2827.211503	-2.586900	3.034400	-7.849400	41.867765	39.993895
2828.213263	-2.601600	3.033300	-7.890900	41.863533	39.988565
2829.213303	-2.612400	3.032800	-7.922700	41.865636	40.007050
2830.216921	-2.598900	3.032200	-7.880000	41.861482	40.000706
2831.214340	-2.577400	3.031700	-7.813700	41.879212	39.988615
2832.213402	-2.595400	3.030900	-7.866200	41.879809	39.989941
2833.216432	-2.572200	3.029700	-7.792500	41.875862	39.981621
2834.216340	-2.623700	3.028200	-7.945100	41.872513	39.990278
2835.218657	-2.597600	3.028700	-7.867500	41.861349	39.992202
2836.217765	-2.593800	3.027700	-7.852600	41.875472	39.992513
2837.215724	-2.603600	3.028100	-7.883300	41.876354	39.989029
2838.212656	-2.626800	3.026000	-7.948400	41.888581	39.988534
2839.212029	-2.578500	3.026600	-7.804100	41.886452	39.983854
2840.213093	-2.607800	3.025400	-7.889200	41.874146	39.996645
2841.214050	-2.615200	3.024200	-7.908400	41.884919	39.996150
2842.215632	-2.611300	3.022400	-7.892300	41.887566	40.001349
2843.212283	-2.570300	3.023000	-7.769400	41.882348	39.996124
2844.213789	-2.615800	3.022300	-7.905400	41.885359	40.006054
2845.214373	-2.622200	3.020700	-7.920200	41.887020	39.999346
2846.213725	-2.611200	3.020000	-7.885700	41.887487	39.979067
2847.216043	-2.593200	3.018800	-7.827900	41.893457	39.982134
2848.216636	-2.609500	3.018800	-7.877300	41.890965	39.978546
2849.215774	-2.594200	3.019000	-7.831500	41.909163	39.975660
2850.216027	-2.620900	3.016200	-7.904700	41.907708	39.986943
2851.218589	-2.606700	3.017000	-7.864200	41.906774	39.995107
2852.215019	-2.598100	3.015700	-7.834500	41.907163	40.002412
2853.212223	-2.577200	3.015000	-7.769200	41.910018	39.997991
2854.212373	-2.620700	3.014300	-7.899100	41.917157	40.001137
2855.214230	-2.591500	3.012200	-7.805700	41.925853	40.002567
2856.213171	-2.612100	3.012000	-7.867100	41.919311	40.001110
2857.216799	-2.605000	3.012200	-7.846200	41.907680	39.992738
2858.216934	-2.603500	3.012200	-7.842000	41.909575	40.012835
2859.213063	-2.595200	3.009700	-7.810000	41.921464	39.991984
2860.215339	-2.618100	3.009100	-7.878000	41.929979	39.975033
2861.213033	-2.602700	3.008200	-7.829300	41.913676	39.982364
2862.217544	-2.589900	3.006700	-7.786300	41.929952	39.984469
2863.215246	-2.608100	3.006400	-7.840700	41.929692	39.984573
2864.214956	-2.613600	3.005200	-7.853900	41.923825	39.985249
2865.217150	-2.605500	3.005200	-7.829200	41.931587	39.989018
2866.215953	-2.612200	3.003800	-7.846200	41.947370	40.011741
2867.215559	-2.612500	3.003500	-7.845900	41.942983	40.006983
2868.214377	-2.630400	3.001500	-7.894800	41.935688	39.985118
2869.213850	-2.616200	3.001500	-7.852300	41.940646	39.993359
2870.215708	-2.612900	3.000600	-7.840200	41.949887	39.996791
2871.214391	-2.588100	3.000400	-7.765100	41.953651	39.991461
2872.212308	-2.620800	2.998500	-7.858100	41.951185	40.004278
2873.217929	-2.588200	2.997900	-7.758600	41.962191	39.974171
2874.213764	-2.618800	2.995400	-7.843600	41.953884	39.986234
2875.214875	-2.609600	2.995800	-7.817500	41.946147	39.987950
2876.213330	-2.621700	2.994500	-7.850400	41.948302	39.973728
2877.216833	-2.611900	2.993800	-7.819300	41.957855	39.989847
2878.214595	-2.578400	2.993100	-7.716900	41.972002	39.970166
2879.218878	-2.598000	2.992300	-7.773000	41.962164	39.983607
2880.214022	-2.567300	2.991600	-7.679400	41.980438	39.998998
2881.215448	-2.586900	2.989300	-7.732700	41.962942	39.979291
2882.214572	-2.591700	2.988600	-7.745100	41.975765	39.979758
2883.214722	-2.552400	2.988900	-7.629000	41.978984	39.991354
2884.212943	-2.602600	2.987200	-7.774000	41.984357	39.976352
2885.213089	-2.653600	2.986500	-7.924900	41.991911	39.978094
2886.216714	-2.576500	2.986700	-7.695000	41.985447	39.973076
2887.216450	-2.633900	2.984500	-7.860700	41.988951	39.989689
2888.218136	-2.590400	2.983500	-7.728100	41.979788	39.990339
2889.216859	-2.595300	2.983200	-7.741800	41.979709	39.992080
2890.212324	-2.611300	2.983500	-7.790600	41.979761	39.993224
2891.212913	-2.613700	2.981500	-7.792000	41.984304	39.975571
2892.214879	-2.604800	2.980600	-7.763800	41.998425	39.986802
2893.214118	-2.578600	2.980400	-7.684800	42.002474	39.982850
2894.218971	-2.617300	2.978600	-7.795300	41.982616	39.990259
2895.215738	-2.582400	2.977900	-7.689700	41.987055	39.991429
2896.212981	-2.571200	2.977100	-7.654200	41.989417	39.974504
2897.213562	-2.582200	2.975200	-7.682100	42.005121	39.972762
2898.212419	-2.575500	2.974100	-7.659400	41.999514	39.980613
2899.213721	-2.598100	2.973100	-7.724100	42.001098	39.972371
2900.213716	-2.594600	2.971800	-7.710100	41.992038	39.985501
2901.212956	-2.580800	2.970800	-7.666700	42.005277	39.995848
2902.213525	-2.603300	2.969600	-7.730400	42.006600	39.976791
2903.214560	-2.580300	2.969800	-7.662600	42.004783	39.975335
2904.214735	-2.593200	2.968300	-7.696800	42.000552	39.963453
2905.213267	-2.589700	2.966500	-7.682100	42.016386	39.983680
2906.213317	-2.570900	2.967400	-7.628400	42.008157	39.961971
2907.213914	-2.639700	2.966000	-7.828500	42.016672	39.987970
2908.215661	-2.614200	2.964100	-7.748400	42.022642	39.991402
2909.213092	-2.604400	2.962100	-7.714300	42.024666	39.974502
2910.213272	-2.614200	2.961600	-7.741800	42.025601	39.974346
2911.212160	-2.637500	2.960200	-7.807500	42.031857	39.996991
2912.216806	-2.597000	2.960900	-7.689100	42.035906	39.977024
2913.215402	-2.625500	2.958800	-7.767800	42.046730	39.994053
2914.217008	-2.547300	2.958400	-7.535300	42.034634	39.977934
2915.217016	-2.588600	2.955600	-7.650400	42.044939	39.996991
2916.213464	-2.582900	2.955000	-7.631900	42.049897	39.976842
2917.214890	-2.586300	2.954100	-7.639900	42.040500	39.990725
2918.214062	-2.598100	2.953900	-7.674300	42.059293	40.007364
2919.213682	-2.548200	2.951600	-7.520900	42.053842	39.995717
2920.214625	-2.596700	2.950600	-7.661700	42.048703	40.002581
2921.214345	-2.595300	2.948700	-7.651900	42.049326	39.991921
2922.213759	-2.598800	2.947700	-7.660200	42.060124	39.985993
2923.216602	-2.568300	2.947600	-7.570300	42.071986	39.974944
2924.215590	-2.574400	2.946300	-7.584600	42.071182	39.983965
2925.213150	-2.633400	2.943900	-7.751900	42.056308	39.978896
2926.213742	-2.610900	2.943100	-7.684000	42.059190	39.971590
2927.218201	-2.593700	2.942600	-7.632000	42.056516	39.985656
2928.217342	-2.558300	2.941000	-7.522800	42.061500	39.984096
2929.216086	-2.596700	2.940700	-7.636300	42.076970	39.974476
2930.215869	-2.545000	2.938700	-7.478700	42.077983	39.978038
2931.214928	-2.598300	2.937900	-7.632400	42.085354	39.979234
2932.212112	-2.580700	2.937800	-7.581200	42.078216	39.976816
2933.212897	-2.596800	2.935800	-7.623400	42.072662	39.983992
2934.212341	-2.610100	2.933600	-7.656200	42.079956	39.966911
2935.211105	-2.594400	2.932800	-7.608200	42.069910	39.989972
2936.212225	-2.593900	2.932000	-7.605100	42.084394	39.965533
2937.215540	-2.577700	2.931000	-7.555100	42.081280	39.974789
2938.213382	-2.597500	2.929000	-7.607800	42.089949	39.983837
2939.213801	-2.595700	2.928300	-7.600600	42.093454	39.973879
2940.215872	-2.624600	2.926400	-7.679800	42.101293	39.966807
2941.214771	-2.606000	2.924800	-7.621600	42.093635	39.960594
2942.216882	-2.619200	2.923600	-7.657300	42.087484	39.970083
2943.214110	-2.585200	2.923300	-7.556900	42.096465	39.980899
2944.218827	-2.592200	2.921000	-7.572100	42.095687	39.980847
2945.214144	-2.634000	2.918800	-7.687400	42.090210	39.973906
2946.214428	-2.574900	2.919900	-7.518000	42.107705	39.979782
2947.212984	-2.568500	2.917000	-7.492200	42.113908	39.969980
2948.214870	-2.608400	2.916400	-7.606000	42.113493	39.960465
2949.214619	-2.609600	2.913800	-7.603500	42.130780	39.968681
2950.213642	-2.614700	2.912700	-7.615400	42.113026	39.980745
2951.213478	-2.625000	2.912500	-7.644800	42.133869	39.980875
2952.212191	-2.631900	2.908600	-7.654100	42.139657	39.990313
2953.218649	-2.618000	2.908500	-7.613900	42.136076	39.985997
2954.214729	-2.618700	2.908100	-7.615400	42.122683	39.974766
2955.212359	-2.617600	2.906400	-7.606900	42.132261	39.991275
2956.214306	-2.612800	2.903500	-7.585800	42.144797	39.968162
2957.212062	-2.641800	2.902400	-7.667200	42.140801	39.994006
2958.212862	-2.589100	2.901600	-7.511900	42.127771	39.998062
2959.214534	-2.600100	2.899800	-7.539500	42.131613	39.989534
2960.218714	-2.618100	2.898700	-7.588700	42.141295	39.974481
2961.217134	-2.613700	2.897700	-7.573700	42.152508	39.971881
2962.215602	-2.588900	2.896700	-7.498600	42.146305	39.975496
2963.215307	-2.578300	2.894300	-7.461800	42.138674	39.989328
2964.215866	-2.595900	2.892900	-7.509300	42.154274	39.975470
2965.214183	-2.595600	2.891100	-7.503600	42.168082	40.003133
2966.213235	-2.581800	2.889300	-7.459200	42.169484	39.985611
2967.213354	-2.601700	2.887400	-7.511700	42.155780	39.990447
2968.210301	-2.580500	2.886600	-7.448700	42.151653	39.961198
2969.213875	-2.586100	2.886800	-7.465400	42.160037	39.969232
2970.213308	-2.607200	2.884300	-7.519700	42.151939	39.963304
2971.215685	-2.639000	2.881800	-7.604600	42.164528	39.971911
2972.218754	-2.567000	2.881100	-7.395000	42.162115	39.982597
2973.212642	-2.556300	2.878600	-7.358000	42.182697	39.979555
2974.213417	-2.631900	2.876800	-7.571100	42.181218	39.960238
2975.212845	-2.616600	2.875900	-7.524500	42.181893	39.971106
2976.212685	-2.602100	2.874100	-7.477800	42.172134	39.970066
2977.213082	-2.605200	2.872800	-7.484100	42.166036	39.986888
2978.215127	-2.576500	2.870600	-7.395600	42.180571	39.993804
2979.216947	-2.596200	2.869500	-7.449700	42.185217	39.999914
2980.214499	-2.593700	2.867900	-7.437900	42.190460	39.982600
2981.218659	-2.615400	2.865600	-7.494500	42.187761	39.996275
2982.213078	-2.638700	2.863400	-7.555200	42.189604	39.989750
2983.214532	-2.623400	2.863300	-7.510900	42.203282	39.978700
2984.213845	-2.586500	2.860600	-7.398700	42.182416	39.986189
2985.213064	-2.603500	2.858600	-7.441900	42.210317	39.987567
2986.214382	-2.604400	2.856700	-7.439300	42.203803	39.973398
2987.213912	-2.569300	2.856400	-7.338800	42.197574	39.990090
2988.213300	-2.604600	2.854200	-7.434200	42.224437	39.962401
2989.213742	-2.600900	2.850400	-7.413400	42.195239	39.976831
2990.214885	-2.593500	2.849300	-7.389400	42.224620	39.969864
2991.215044	-2.615700	2.848300	-7.450300	42.215510	39.977481
2992.213422	-2.567200	2.847000	-7.308700	42.211021	39.967889
2993.213577	-2.596100	2.844900	-7.385300	42.215770	39.990482
2994.218400	-2.590300	2.841200	-7.359300	42.211956	39.985933
2995.217635	-2.626600	2.840500	-7.460200	42.222156	39.982683
2996.214547	-2.604500	2.838900	-7.393100	42.230176	39.985621
2997.216858	-2.611000	2.837300	-7.408000	42.250057	39.981514
2998.214074	-2.608900	2.834800	-7.395200	42.227322	39.984582
2999.214065	-2.560300	2.834300	-7.256600	42.233836	39.973273
3000.214492	-2.612200	2.831900	-7.397000	42.246918	39.983465
3001.214734	-2.615500	2.828300	-7.396600	42.240455	39.991915
3002.213655	-2.628700	2.826100	-7.428500	42.254367	39.982556
3003.213606	-2.604300	2.824600	-7.355800	42.268174	39.980008
3004.216465	-2.615300	2.823500	-7.384000	42.255276	39.997298
3005.211141	-2.603900	2.820800	-7.344700	42.251954	39.993243
3006.213120	-2.626300	2.819600	-7.404600	42.249178	39.988641
3007.213767	-2.616600	2.816900	-7.370300	42.258158	39.982713
3008.213839	-2.640000	2.815400	-7.432400	42.252682	39.999067
3009.218249	-2.662300	2.812400	-7.487100	42.260547	39.998574
3010.213430	-2.608500	2.810000	-7.329400	42.262156	39.995819
3011.216180	-2.583100	2.808800	-7.254700	42.270176	39.974734
3012.214190	-2.609200	2.806900	-7.323600	42.273005	39.995403
3013.213954	-2.564600	2.806000	-7.195700	42.286891	39.972551
3014.212813	-2.581400	2.802900	-7.234500	42.279701	39.985004
3015.212905	-2.574100	2.801600	-7.210900	42.288423	39.983549
3016.213218	-2.627300	2.798500	-7.351900	42.293588	40.000371
3017.213969	-2.585700	2.795500	-7.228000	42.286244	39.985371
3018.214488	-2.638400	2.795000	-7.374100	42.299557	39.999072
3019.214141	-2.600700	2.792500	-7.262300	42.299713	39.991220
3020.212425	-2.622500	2.789500	-7.314900	42.280146	39.990545
3021.214119	-2.601300	2.788800	-7.254200	42.297923	39.994887
3022.214812	-2.610500	2.786300	-7.273200	42.316843	39.969798
3023.218119	-2.593100	2.782500	-7.215100	42.302570	39.978431
3024.214347	-2.597500	2.780100	-7.220600	42.306982	39.970112
3025.215119	-2.604800	2.779100	-7.238700	42.299794	40.002949
3026.217577	-2.620700	2.775000	-7.272000	42.307814	39.996060
3027.215341	-2.575300	2.774500	-7.144900	42.318350	39.977860
3028.216056	-2.610000	2.771500	-7.232900	42.305686	39.979369
3029.215664	-2.611300	2.768200	-7.228100	42.330497	39.990757
3030.212965	-2.579500	2.766200	-7.135000	42.326786	39.982308
3031.212370	-2.614100	2.763400	-7.222800	42.313318	39.969543
3032.212994	-2.605800	2.761600	-7.195500	42.326735	39.977525
3033.214778	-2.593600	2.758800	-7.154800	42.338830	39.973626
3034.213829	-2.615300	2.755100	-7.204900	42.326451	39.980880
3035.214353	-2.607700	2.753700	-7.180300	42.339375	39.981088
3036.214912	-2.622100	2.749700	-7.209500	42.323260	39.988239
3037.212374	-2.583900	2.748200	-7.100900	42.319861	39.982649
3038.216861	-2.596100	2.745300	-7.126600	42.336808	39.979608
3039.217184	-2.630500	2.743200	-7.215900	42.343556	39.979088
3040.212725	-2.579500	2.740900	-7.070100	42.346593	39.991231
3041.216443	-2.601100	2.737200	-7.118700	42.359361	39.986551
3042.215399	-2.572700	2.734300	-7.033600	42.349319	39.987774
3043.217669	-2.595100	2.733000	-7.092100	42.372286	39.984213
3044.214810	-2.629600	2.729200	-7.176700	42.372702	39.997733
3045.216270	-2.601200	2.726500	-7.092200	42.362374	39.984110
3046.214952	-2.621900	2.722700	-7.138000	42.372262	39.985281
3047.213733	-2.557300	2.720600	-6.956900	42.368085	39.991652
3048.213692	-2.530100	2.716400	-6.872200	42.364532	39.987727
3049.215937	-2.594900	2.713500	-7.040900	42.362975	39.982164
3050.211935	-2.638200	2.708800	-7.145800	42.375614	39.972259
3051.212391	-2.576100	2.707200	-6.973600	42.382778	39.978345
3052.213011	-2.584500	2.704000	-6.987700	42.378963	39.983986
3053.215240	-2.581700	2.700200	-6.970700	42.372113	39.986587
3054.211702	-2.618900	2.695200	-7.058400	42.388619	39.994024
3055.214042	-2.602900	2.693000	-7.008500	42.402296	39.976060
3056.217934	-2.591300	2.690000	-6.970100	42.388700	39.972266
3057.215203	-2.567300	2.685400	-6.894100	42.391398	39.983705
3058.214941	-2.614200	2.683100	-7.013400	42.414262	39.987320
3059.217982	-2.578200	2.678100	-6.904300	42.409306	39.980899
3060.214152	-2.592500	2.674800	-6.934000	42.411877	39.968916
3061.214459	-2.600600	2.669600	-6.942200	42.411618	39.988311
3062.213223	-2.589500	2.666000	-6.903500	42.406376	39.971776
3063.213746	-2.610900	2.662700	-6.951700	42.402849	39.970790
3064.213907	-2.538800	2.659600	-6.752000	42.419274	39.976691
3065.212425	-2.579000	2.654400	-6.845700	42.412295	39.995541
3066.213486	-2.551600	2.651100	-6.764200	42.412583	39.985274
3067.213006	-2.585600	2.644600	-6.837500	42.414323	40.000121
3068.215754	-2.542700	2.641200	-6.714900	42.426390	39.984548
3069.217600	-2.630500	2.637100	-6.935700	42.430102	39.984263
3070.214741	-2.626400	2.630900	-6.909700	42.419152	39.964921
3071.215096	-2.620500	2.626800	-6.883300	42.434801	39.976231
3072.215291	-2.599800	2.622100	-6.816600	42.444013	39.971630
3073.215047	-2.573800	2.617100	-6.735400	42.430341	39.965211
3074.215771	-2.603200	2.611700	-6.798200	42.452008	39.970540
3075.217830	-2.596800	2.607300	-6.770500	42.448689	39.965395
3076.217546	-2.630500	2.601100	-6.841600	42.456448	39.976081
3077.215406	-2.598400	2.596500	-6.746400	42.452142	39.979775
3078.214078	-2.616900	2.591200	-6.780500	42.460732	39.978918
3079.213750	-2.561300	2.585600	-6.621800	42.464885	39.981259
3080.212297	-2.563600	2.579600	-6.612800	42.458452	39.967897
3081.213182	-2.614600	2.573200	-6.727400	42.461722	39.960982
3082.212781	-2.556800	2.566600	-6.561700	42.460608	39.968238
3083.213078	-2.580600	2.560600	-6.607800	42.483496	39.975518
3084.216056	-2.612100	2.552300	-6.666300	42.461986	39.970346
3085.215993	-2.586500	2.546700	-6.586600	42.477738	39.966109
3086.215512	-2.603000	2.539700	-6.610500	42.475560	39.976302
3087.213067	-2.554600	2.532100	-6.467500	42.482932	39.974952
3088.214083	-2.625500	2.523800	-6.624900	42.494324	39.955428
3089.212461	-2.566300	2.515600	-6.455700	42.479379	39.977217
3090.212996	-2.606000	2.506700	-6.532200	42.488982	39.956264
3091.214248	-2.563700	2.497800	-6.403000	42.494069	39.960268
